10
#Data type          : SCIAMACHY solar mean ref.
#L1b product        : SCI_NL__1PWDPA20100218_001751_000060192087_00031_41668_0110.N1
#Orbit nr.          : 41668
#Ver. Proc/Key/M/I/D: SciaL1c/6       03.10  -1.     500  nnnnnnnn
#Starttime          : 18-FEB-2010 00:17:50.881260
#L.12 : Number_of_pixels
#L.13 : Solar ID 
#L.14 : Orbit 
#L.15 : Date Time : yyyy mm dd hh mm ss
#L.16 : Npix lines : wavelength  irradiance
8192
D0
41668
2010  2 18  0 17 50
 212.5862   3.05444e+09
 212.7376  -2.78179e+09
 212.8889  -3.27190e+10
 213.0401  -1.22686e+11
 213.1912   1.00626e+11
 213.3421   3.40287e+12
 213.4928   7.69206e+12
 213.6434  -5.25345e+10
 213.7939  -5.88784e+11
 213.9443  -8.56517e+10
 214.0945   7.00756e+10
 214.2445   2.08467e+11
 214.3945   2.46953e+11
 214.5443   6.50400e+11
 214.6940   2.47733e+11
 214.8435   1.88178e+11
 214.9929   4.43394e+11
 215.1421   6.01297e+11
 215.2912   6.11804e+11
 215.4402   4.78205e+11
 215.5890   5.87576e+11
 215.7378   5.59299e+11
 215.8864   4.25753e+11
 216.0347   5.29444e+11
 216.1831   8.54533e+11
 216.3313   6.09743e+11
 216.4792   7.35599e+11
 216.6272   1.00392e+12
 216.7749   1.45552e+12
 216.9226   2.88132e+12
 217.0701   1.42918e+12
 217.2174   9.79147e+11
 217.3647   1.17358e+12
 217.5118   1.26943e+12
 217.6588   1.22035e+12
 217.8056   1.42144e+12
 217.9523   1.35598e+12
 218.0989   1.01634e+12
 218.2454   1.56361e+12
 218.3918   2.18146e+12
 218.5379   1.28420e+12
 218.6840   1.38043e+12
 218.8300   1.80017e+12
 218.9758   1.67401e+12
 219.1214   1.88138e+12
 219.2669   1.98744e+12
 219.4124   2.30026e+12
 219.5577   2.31006e+12
 219.7029   1.77639e+12
 219.8479   1.72578e+12
 219.9928   2.30671e+12
 220.1376   3.06290e+12
 220.2823   2.33044e+12
 220.4268   2.36856e+12
 220.5713   3.39976e+12
 220.7156   4.11248e+12
 220.8598   3.09949e+12
 221.0038   3.24180e+12
 221.1477   3.35081e+12
 221.2915   3.00550e+12
 221.4352   2.53828e+12
 221.5786   2.08677e+12
 221.7221   1.85526e+12
 221.8654   2.00742e+12
 222.0086   2.22113e+12
 222.1516   2.13663e+12
 222.2946   2.33147e+12
 222.4374   2.62644e+12
 222.5800   2.88343e+12
 222.7226   3.03199e+12
 222.8651   3.01509e+12
 223.0074   3.07220e+12
 223.1496   2.91701e+12
 223.2917   3.05243e+12
 223.4337   3.45429e+12
 223.5755   3.97618e+12
 223.7172   4.38097e+12
 223.8589   4.54258e+12
 224.0003   4.53593e+12
 224.1417   4.68649e+12
 224.2829   4.51362e+12
 224.4241   4.32209e+12
 224.5652   4.22920e+12
 224.7060   4.18531e+12
 224.8468   4.44940e+12
 224.9875   4.66179e+12
 225.1281   4.81499e+12
 225.2684   4.62118e+12
 225.4088   4.12202e+12
 225.5490   3.89604e+12
 225.6890   3.95981e+12
 225.8290   4.00551e+12
 225.9689   4.12284e+12
 226.1086   4.12196e+12
 226.2482   3.93658e+12
 226.3877   3.64405e+12
 226.5271   3.49592e+12
 226.6664   3.27977e+12
 226.8056   3.15945e+12
 226.9446   3.01487e+12
 227.0836   2.75895e+12
 227.2225   2.59574e+12
 227.3612   2.56124e+12
 227.4997   2.63350e+12
 227.6382   2.72521e+12
 227.7767   2.88959e+12
 227.9149   3.09137e+12
 228.0531   3.23469e+12
 228.1911   3.42173e+12
 228.3290   3.62094e+12
 228.4669   4.05252e+12
 228.6046   4.44221e+12
 228.7422   4.61553e+12
 228.8798   4.39167e+12
 229.0172   3.97536e+12
 229.1544   3.70150e+12
 229.2915   3.66515e+12
 229.4286   3.90052e+12
 229.5657   4.26915e+12
 229.7025   4.55723e+12
 229.8392   4.58793e+12
 229.9758   3.98847e+12
 230.1124   3.44078e+12
 230.2488   3.34362e+12
 230.3851   3.73317e+12
 230.5213   4.16795e+12
 230.6574   4.68564e+12
 230.7935   5.61945e+12
 230.9294   6.01522e+12
 231.0651   5.43847e+12
 231.2008   4.54541e+12
 231.3364   3.68019e+12
 231.4719   3.47396e+12
 231.6073   4.33698e+12
 231.7425   5.22383e+12
 231.8776   5.45905e+12
 232.0127   5.16320e+12
 232.1477   4.58069e+12
 232.2825   4.24283e+12
 232.4173   5.00781e+12
 232.5520   6.21020e+12
 232.6865   5.94855e+12
 232.8209   4.72344e+12
 232.9553   4.42299e+12
 233.0896   4.89006e+12
 233.2237   4.69490e+12
 233.3577   4.08700e+12
 233.4916   4.02344e+12
 233.6255   4.67054e+12
 233.7593   5.01551e+12
 233.8929   4.38130e+12
 234.0264   3.66655e+12
 234.1598   3.84298e+12
 234.2932   4.35162e+12
 234.4265   4.02954e+12
 234.5596   3.19048e+12
 234.6926   2.96716e+12
 234.8256   3.21340e+12
 234.9585   3.48448e+12
 235.0912   4.15036e+12
 235.2238   5.14843e+12
 235.3564   5.91382e+12
 235.4889   6.00302e+12
 235.6213   5.70359e+12
 235.7535   6.14935e+12
 235.8858   6.24496e+12
 236.0178   5.17792e+12
 236.1497   4.12283e+12
 236.2817   4.51324e+12
 236.4135   5.36149e+12
 236.5452   5.14440e+12
 236.6768   4.51615e+12
 236.8083   4.30854e+12
 236.9398   4.62625e+12
 237.0710   5.42695e+12
 237.2022   6.21655e+12
 237.3335   6.36831e+12
 237.4645   5.08912e+12
 237.5954   4.40549e+12
 237.7263   5.26502e+12
 237.8571   5.94527e+12
 237.9877   5.19224e+12
 238.1183   4.15506e+12
 238.2487   3.32108e+12
 238.3792   2.93358e+12
 238.5095   3.61622e+12
 238.6397   4.77692e+12
 238.7699   5.21384e+12
 238.8999   4.50491e+12
 239.0299   4.34260e+12
 239.1597   5.50270e+12
 239.2895   5.97347e+12
 239.4191   5.48462e+12
 239.5488   4.47597e+12
 239.6783   3.62902e+12
 239.8077   4.01457e+12
 239.9370   4.42922e+12
 240.0663   4.47221e+12
 240.1954   5.02076e+12
 240.3245   5.13914e+12
 240.4534   4.46956e+12
 240.5824   3.69613e+12
 240.7112   3.65190e+12
 240.8399   4.23305e+12
 240.9685   4.83658e+12
 241.0971   4.39121e+12
 241.2255   3.80902e+12
 241.3539   4.07342e+12
 241.4822   4.72952e+12
 241.6104   5.71433e+12
 241.7385   6.43157e+12
 241.8665   6.93327e+12
 241.9945   7.42757e+12
 242.1223   7.93188e+12
 242.2501   8.36019e+12
 242.3778   7.94939e+12
 242.5054   7.25692e+12
 242.6330   7.79782e+12
 242.7604   8.85866e+12
 242.8878   8.43454e+12
 243.0151   7.94971e+12
 243.1423   8.40365e+12
 243.2694   7.92310e+12
 243.3965   7.37599e+12
 243.5234   7.00920e+12
 243.6503   6.59959e+12
 243.7771   7.23702e+12
 243.9038   7.52041e+12
 244.0305   7.01193e+12
 244.1570   7.64599e+12
 244.2835   8.41393e+12
 244.4099   7.75406e+12
 244.5361   7.15630e+12
 244.6624   6.95043e+12
 244.7886   6.40842e+12
 244.9146   6.01185e+12
 245.0406   5.95394e+12
 245.1666   5.65553e+12
 245.2924   5.38843e+12
 245.4182   5.40284e+12
 245.5438   5.71285e+12
 245.6694   5.84011e+12
 245.7950   6.06395e+12
 245.9205   6.07825e+12
 246.0458   5.70033e+12
 246.1712   5.30158e+12
 246.2963   4.94821e+12
 246.4215   5.32886e+12
 246.5466   5.92994e+12
 246.6716   6.06427e+12
 246.7965   6.32663e+12
 246.9213   6.54942e+12
 247.0461   6.53384e+12
 247.1708   6.64875e+12
 247.2954   6.14074e+12
 247.4200   6.29972e+12
 247.5444   7.30726e+12
 247.6688   7.34419e+12
 247.7932   6.96113e+12
 247.9174   6.19394e+12
 248.0415   5.80592e+12
 248.1657   6.25169e+12
 248.2897   5.47585e+12
 248.4137   4.30804e+12
 248.5376   5.07476e+12
 248.6614   5.97323e+12
 248.7851   5.36444e+12
 248.9088   4.52863e+12
 249.0324   4.17548e+12
 249.1559   4.18525e+12
 249.2794   5.27804e+12
 249.4028   6.77074e+12
 249.5260   8.13978e+12
 249.6493   8.29486e+12
 249.7725   8.13310e+12
 249.8957   8.36427e+12
 250.0186   8.44846e+12
 250.1416   7.30363e+12
 250.2646   6.82873e+12
 250.3873   7.89686e+12
 250.5101   7.92997e+12
 250.6328   6.46847e+12
 250.7554   5.50202e+12
 250.8780   6.72573e+12
 251.0005   7.74800e+12
 251.1230   7.04385e+12
 251.2452   6.46113e+12
 251.3676   6.02125e+12
 251.4898   5.09865e+12
 251.6119   4.55818e+12
 251.7340   4.51949e+12
 251.8561   4.74604e+12
 251.9780   5.03723e+12
 252.0999   5.68125e+12
 252.2217   5.55129e+12
 252.3434   4.67201e+12
 252.4652   4.49728e+12
 252.5868   5.14645e+12
 252.7083   5.46831e+12
 252.8298   4.80290e+12
 252.9513   4.43774e+12
 253.0726   5.55909e+12
 253.1940   6.90694e+12
 253.3152   6.94982e+12
 253.4363   6.73938e+12
 253.5575   6.48184e+12
 253.6786   6.22205e+12
 253.7995   6.55588e+12
 253.9205   6.79490e+12
 254.0413   7.01199e+12
 254.1621   6.89432e+12
 254.2829   7.28287e+12
 254.4035   7.92807e+12
 254.5241   7.60849e+12
 254.6447   6.99585e+12
 254.7652   6.99680e+12
 254.8856   6.83961e+12
 255.0060   6.72065e+12
 255.1263   8.44581e+12
 255.2466   1.01860e+13
 255.3667   1.04766e+13
 255.4869   1.07820e+13
 255.6070   1.04803e+13
 255.7269   1.01307e+13
 255.8469   1.09178e+13
 255.9668   1.21750e+13
 256.0866   1.18989e+13
 256.2064   1.04628e+13
 256.3261   8.88497e+12
 256.4458   9.69535e+12
 256.5654   1.25958e+13
 256.6849   1.46502e+13
 256.8044   1.48550e+13
 256.9239   1.53229e+13
 257.0432   1.66017e+13
 257.1626   1.66907e+13
 257.2817   1.70654e+13
 257.4010   1.78234e+13
 257.5202   1.47025e+13
 257.6392   1.05557e+13
 257.7583   1.17274e+13
 257.8773   1.54631e+13
 257.9961   1.87469e+13
 258.1150   2.18268e+13
 258.2339   2.11476e+13
 258.3526   1.69952e+13
 258.4713   1.43981e+13
 258.5899   1.05861e+13
 258.7085   1.06440e+13
 258.8271   1.44081e+13
 258.9455   1.96313e+13
 259.0640   2.11625e+13
 259.1823   1.67374e+13
 259.3007   1.44099e+13
 259.4190   1.22254e+13
 259.5371   1.31145e+13
 259.6553   1.42798e+13
 259.7734   1.14713e+13
 259.8915   7.56913e+12
 260.0095   6.53774e+12
 260.1274   1.01037e+13
 260.2453   1.42343e+13
 260.3632   1.50605e+13
 260.4810   1.35577e+13
 260.5987   1.06982e+13
 260.7165   8.33085e+12
 260.8340   9.40101e+12
 260.9517   1.19792e+13
 261.0692   1.21167e+13
 261.1867   9.28170e+12
 261.3042   8.03465e+12
 261.4216   8.90590e+12
 261.5389   1.17030e+13
 261.6562   1.43752e+13
 261.7735   1.25594e+13
 261.8906   1.19725e+13
 262.0078   1.48689e+13
 262.1250   1.49199e+13
 262.2419   1.46470e+13
 262.3590   1.62977e+13
 262.4760   1.65304e+13
 262.5928   1.36094e+13
 262.7097   1.21037e+13
 262.8265   1.19173e+13
 262.9432   1.12380e+13
 263.0600   1.07678e+13
 263.1766   9.06395e+12
 263.2933   1.12038e+13
 263.4099   1.69036e+13
 263.5263   2.10615e+13
 263.6429   2.36015e+13
 263.7593   2.85918e+13
 263.8758   3.47195e+13
 263.9920   3.45049e+13
 264.1084   3.05783e+13
 264.2247   3.29766e+13
 264.3408   4.08907e+13
 264.4570   3.99953e+13
 264.5732   3.35934e+13
 264.6893   3.05944e+13
 264.8052   2.74034e+13
 264.9213   2.44346e+13
 265.0372   2.60671e+13
 265.1531   2.79816e+13
 265.2690   2.99026e+13
 265.3848   3.25972e+13
 265.5005   3.76773e+13
 265.6163   3.91629e+13
 265.7320   3.73781e+13
 265.8477   3.60032e+13
 265.9632   3.51024e+13
 266.0788   3.61819e+13
 266.1943   3.26864e+13
 266.3098   3.08539e+13
 266.4252   2.92747e+13
 266.5406   3.22990e+13
 266.6560   3.21884e+13
 266.7713   3.18454e+13
 266.8865   3.39403e+13
 267.0018   3.02997e+13
 267.1170   3.40920e+13
 267.2321   3.24286e+13
 267.3472   2.70657e+13
 267.4623   3.50762e+13
 267.5774   4.07119e+13
 267.6924   3.78670e+13
 267.8073   3.27808e+13
 267.9222   2.83308e+13
 268.0371   2.88830e+13
 268.1519   3.30572e+13
 268.2667   3.45539e+13
 268.3814   3.32360e+13
 268.4962   3.13408e+13
 268.6109   3.31577e+13
 268.7255   3.54100e+13
 268.8401   3.30732e+13
 268.9547   2.92741e+13
 269.0692   2.72076e+13
 269.1837   3.02052e+13
 269.2982   3.29045e+13
 269.4126   3.41187e+13
 269.5269   3.05343e+13
 269.6414   2.58136e+13
 269.7556   2.93141e+13
 269.8699   3.02346e+13
 269.9841   3.44409e+13
 270.0983   4.12744e+13
 270.2125   3.61897e+13
 270.3267   3.55981e+13
 270.4407   3.92413e+13
 270.5547   4.10994e+13
 270.6688   3.57932e+13
 270.7828   3.28783e+13
 270.8967   3.28186e+13
 271.0107   3.33821e+13
 271.1246   3.36224e+13
 271.2383   3.44762e+13
 271.3522   3.81037e+13
 271.4660   3.10174e+13
 271.5797   2.67664e+13
 271.6934   3.18187e+13
 271.8071   3.04861e+13
 271.9208   2.06403e+13
 272.0344   1.57840e+13
 272.1480   1.84485e+13
 272.2616   2.43264e+13
 272.3751   2.55671e+13
 272.4886   2.42275e+13
 272.6021   2.66785e+13
 272.7154   2.66392e+13
 272.8288   2.65571e+13
 272.9422   3.58256e+13
 273.0555   4.01474e+13
 273.1688   3.47572e+13
 273.2821   3.30576e+13
 273.3953   2.74551e+13
 273.5085   2.54344e+13
 273.6217   2.65977e+13
 273.7348   2.14205e+13
 273.8479   2.01688e+13
 273.9610   1.97203e+13
 274.0741   1.79230e+13
 274.1871   1.96529e+13
 274.3001   1.60816e+13
 274.4131   1.42259e+13
 274.5260   1.93312e+13
 274.6389   1.97696e+13
 274.7518   1.55689e+13
 274.8646   1.75410e+13
 274.9774   1.51166e+13
 275.0902   1.51384e+13
 275.2030   2.42862e+13
 275.3157   3.05213e+13
 275.4284   2.67145e+13
 275.5411   2.05621e+13
 275.6537   1.60898e+13
 275.7664   2.09594e+13
 275.8790   3.50449e+13
 275.9916   3.90748e+13
 276.1042   3.54199e+13
 276.2167   3.01926e+13
 276.3291   2.75874e+13
 276.4416   3.41116e+13
 276.5540   4.00554e+13
 276.6664   3.79390e+13
 276.7788   3.34678e+13
 276.8911   3.09399e+13
 277.0035   3.09038e+13
 277.1158   3.64624e+13
 277.2281   3.59250e+13
 277.3404   3.55462e+13
 277.4526   3.87781e+13
 277.5648   3.62529e+13
 277.6770   3.15245e+13
 277.7891   2.86797e+13
 277.9012   2.50949e+13
 278.0133   2.24359e+13
 278.1255   2.21828e+13
 278.2375   2.30835e+13
 278.3495   2.26695e+13
 278.4615   2.25113e+13
 278.5735   2.37672e+13
 278.6855   2.36863e+13
 278.7975   2.11263e+13
 278.9094   1.82933e+13
 279.0213   1.65777e+13
 279.1331   1.44468e+13
 279.2451   1.26828e+13
 279.3569   1.08561e+13
 279.4686   9.08624e+12
 279.5804   1.07279e+13
 279.6923   1.04662e+13
 279.8040   8.52421e+12
 279.9157   9.55286e+12
 280.0273   1.08914e+13
 280.1390   1.01961e+13
 280.2507   9.99925e+12
 280.3623   1.06676e+13
 280.4739   1.01929e+13
 280.5855   1.19004e+13
 280.6971   1.44126e+13
 280.8086   1.68620e+13
 280.9202   1.99165e+13
 281.0317   2.25072e+13
 281.1432   2.30521e+13
 281.2546   2.32274e+13
 281.3661   2.46654e+13
 281.4776   3.07057e+13
 281.5891   3.50102e+13
 281.7003   3.35837e+13
 281.8118   3.33701e+13
 281.9231   3.62617e+13
 282.0345   3.96928e+13
 282.1458   4.05351e+13
 282.2570   3.94727e+13
 282.3683   4.13025e+13
 282.4796   4.55146e+13
 282.5908   4.08133e+13
 282.7021   3.92926e+13
 282.8133   4.26131e+13
 282.9244   4.50488e+13
 283.0357   4.86843e+13
 283.1468   4.90606e+13
 283.2580   4.67074e+13
 283.3691   4.69790e+13
 283.4801   4.57809e+13
 283.5913   3.76626e+13
 283.7023   4.02523e+13
 283.8134   4.90095e+13
 283.9244   4.92524e+13
 284.0355   4.49692e+13
 284.1465   4.19163e+13
 284.2574   4.45167e+13
 284.3684   3.75619e+13
 284.4795   3.60515e+13
 284.5904   3.83863e+13
 284.7013   3.26717e+13
 284.8122   2.72058e+13
 284.9231   2.16955e+13
 285.0340   1.71482e+13
 285.1448   1.26469e+13
 285.2557   8.91523e+12
 285.3665   1.00079e+13
 285.4774   1.47205e+13
 285.5881   1.92556e+13
 285.6990   2.40931e+13
 285.8097   2.91978e+13
 285.9206   3.40770e+13
 286.0313   4.22935e+13
 286.1420   4.64364e+13
 286.2527   4.69073e+13
 286.3635   4.75957e+13
 286.4741   5.09930e+13
 286.5849   5.16852e+13
 286.6955   5.03106e+13
 286.8062   4.59206e+13
 286.9169   4.28917e+13
 287.0275   4.57976e+13
 287.1381   5.75484e+13
 287.2487   6.28376e+13
 287.3593   5.70408e+13
 287.4700   5.19666e+13
 287.5805   5.11403e+13
 287.6911   4.78983e+13
 287.8016   4.97680e+13
 287.9122   4.55694e+13
 288.0227   3.61960e+13
 288.1332   2.65818e+13
 288.2437   2.10197e+13
 288.3542   2.98533e+13
 288.4647   4.49875e+13
 288.5752   5.81118e+13
 288.6856   5.98914e+13
 288.7961   5.73651e+13
 288.9066   5.71728e+13
 289.0169   5.71470e+13
 289.1274   5.74179e+13
 289.2378   5.86909e+13
 289.3483   5.88774e+13
 289.4586   5.94275e+13
 289.5690   6.66995e+13
 289.6795   7.56576e+13
 289.7897   7.61778e+13
 289.9001   7.60868e+13
 290.0105   8.52142e+13
 290.1208   9.45028e+13
 290.2311   8.57343e+13
 290.3415   8.65603e+13
 290.4518   9.64319e+13
 290.5622   9.60133e+13
 290.6724   8.93166e+13
 290.7827   8.60162e+13
 290.8929   8.27926e+13
 291.0032   8.22363e+13
 291.1135   8.23973e+13
 291.2238   8.41425e+13
 291.3341   9.53365e+13
 291.4442   9.47495e+13
 291.5545   8.10019e+13
 291.6648   7.91955e+13
 291.7750   8.04155e+13
 291.8852   7.73602e+13
 291.9955   8.13235e+13
 292.1056   8.26480e+13
 292.2158   8.40547e+13
 292.3260   8.14083e+13
 292.4362   7.15158e+13
 292.5464   6.94281e+13
 292.6566   6.46625e+13
 292.7667   6.78642e+13
 292.8769   6.46393e+13
 292.9870   6.40480e+13
 293.0972   8.45769e+13
 293.2074   9.27357e+13
 293.3175   9.11099e+13
 293.4276   8.45917e+13
 293.5377   9.31973e+13
 293.6479   8.33632e+13
 293.7580   5.62219e+13
 293.8681   5.94204e+13
 293.9782   6.83839e+13
 294.0884   7.40715e+13
 294.1985   7.02755e+13
 294.3085   7.94301e+13
 294.4186   8.29428e+13
 294.5287   7.54879e+13
 294.6388   8.79434e+13
 294.7488   8.16109e+13
 294.8589   5.31351e+13
 294.9690   5.14421e+13
 295.0791   6.95004e+13
 295.1892   8.66775e+13
 295.2992   9.53591e+13
 295.4093   7.84418e+13
 295.5194   7.19114e+13
 295.6294   8.68822e+13
 295.7395   7.78552e+13
 295.8495   8.07221e+13
 295.9596   9.29511e+13
 296.0696   8.46369e+13
 296.1797   8.34629e+13
 296.2896   9.54328e+13
 296.3997   9.93925e+13
 296.5097   7.90154e+13
 296.6198   5.52893e+13
 296.7299   4.49811e+13
 296.8398   5.70719e+13
 296.9499   6.57587e+13
 297.0599   5.39304e+13
 297.1700   6.31079e+13
 297.2799   6.84303e+13
 297.3900   5.79718e+13
 297.5001   7.54958e+13
 297.6101   8.93751e+13
 297.7201   9.62959e+13
 297.8301   1.10709e+14
 297.9402   9.89581e+13
 298.0502   8.31865e+13
 298.1602   6.85305e+13
 298.2702   5.75992e+13
 298.3802   5.26200e+13
 298.4902   4.42082e+13
 298.6002   4.64338e+13
 298.7103   5.58408e+13
 298.8203   6.12993e+13
 298.9303   7.29396e+13
 299.0403   9.09392e+13
 299.1503   9.74833e+13
 299.2604   8.79842e+13
 299.3704   7.89696e+13
 299.4805   6.02819e+13
 299.5905   5.92631e+13
 299.7005   8.14454e+13
 299.8105   9.45621e+13
 299.9205   8.23572e+13
 300.0306   5.51598e+13
 300.1407   4.29463e+13
 300.2507   4.43097e+13
 300.3607   4.46556e+13
 300.4707   5.92634e+13
 300.5808   7.85132e+13
 300.6908   7.50731e+13
 300.8008   5.92290e+13
 300.9109   5.25973e+13
 301.0210   6.27807e+13
 301.1311   8.12726e+13
 301.2411   7.84113e+13
 301.3511   7.88692e+13
 301.4612   8.31821e+13
 301.5713   8.24139e+13
 301.6813   8.09914e+13
 301.7914   7.03803e+13
 301.9015   5.76299e+13
 302.0115   4.73187e+13
 302.1216   3.35459e+13
 302.2318   4.30529e+13
 302.3418   7.60206e+13
 302.4519   8.56748e+13
 302.5620   7.49922e+13
 302.6721   6.58806e+13
 302.7821   9.22517e+13
 302.8923   1.12405e+14
 303.0024   1.01481e+14
 303.1125   9.06488e+13
 303.2226   8.96134e+13
 303.3328   1.09745e+14
 303.4428   1.13982e+14
 303.5530   1.13738e+14
 303.6631   1.12478e+14
 303.7733   8.10166e+13
 303.8835   6.91491e+13
 303.9936   9.10589e+13
 304.1037   9.21067e+13
 304.2139   7.81406e+13
 304.3240   8.03814e+13
 304.4343   1.00249e+14
 304.5444   1.09580e+14
 304.6546   1.11658e+14
 304.7647   8.62316e+13
 304.8750   6.96881e+13
 304.9852   9.38471e+13
 305.0954   1.01788e+14
 305.2057   1.12269e+14
 305.3159   1.27699e+14
 305.4261   1.06198e+14
 305.5363   9.12865e+13
 305.6465   9.71749e+13
 305.7568   8.01024e+13
 305.8670   5.57952e+13
 305.9772   5.45893e+13
 306.0875   7.55174e+13
 306.1978   1.00290e+14
 306.3081   1.07217e+14
 306.4183   9.35507e+13
 306.5287   8.35635e+13
 306.6390   8.52292e+13
 306.7492   7.12150e+13
 306.8596   7.18373e+13
 306.9699   9.28028e+13
 307.0802   1.05715e+14
 307.1905   1.04308e+14
 307.3008   9.52983e+13
 307.4113   9.93387e+13
 307.5216   9.73336e+13
 307.6319   8.43206e+13
 307.7424   9.73534e+13
 307.8527   9.69027e+13
 307.9631   9.67774e+13
 308.0735   1.06172e+14
 308.1839   9.54978e+13
 308.2943   7.98364e+13
 308.4048   8.11822e+13
 308.5152   1.02756e+14
 308.6256   1.17743e+14
 308.7360   1.07476e+14
 308.8466   8.92581e+13
 308.9570   8.99064e+13
 309.0674   9.00542e+13
 309.1779   7.74298e+13
 309.2885   6.72913e+13
 309.3989   5.34810e+13
 309.5095   6.72780e+13
 309.6200   9.09825e+13
 309.7305   7.79869e+13
 309.8410   6.61251e+13
 309.9516   8.04315e+13
 310.0622   6.76375e+13
 310.1727   4.76696e+13
 310.2834   4.93787e+13
 310.3939   7.85362e+13
 310.5045   1.03779e+14
 310.6151   1.06584e+14
 310.7257   1.06214e+14
 310.8363   1.14348e+14
 310.9471   1.26420e+14
 311.0577   1.25203e+14
 311.1683   1.10995e+14
 311.2789   1.13785e+14
 311.3897   1.23697e+14
 311.5004   1.17358e+14
 311.6110   1.11003e+14
 311.7218   1.17707e+14
 311.8325   9.96464e+13
 311.9432   9.26165e+13
 312.0540   8.93912e+13
 312.1647   8.48886e+13
 312.2755   8.56332e+13
 312.3862   8.59603e+13
 312.4971   1.01802e+14
 312.6079   1.09343e+14
 312.7186   9.04832e+13
 312.8295   9.19182e+13
 312.9403   1.01775e+14
 313.0512   9.87829e+13
 313.1620   1.02795e+14
 313.2729   9.66229e+13
 313.3838   9.66780e+13
 313.4948   9.50788e+13
 313.6056   8.83117e+13
 313.7165   9.47975e+13
 313.8274   9.72378e+13
 313.9384   1.01764e+14
 314.0494   1.12614e+14
 314.1603   1.11572e+14
 314.2714   1.06482e+14
 314.3823   1.09668e+14
 314.4933   9.82223e+13
 314.6043   7.48603e+13
 314.7154   6.93122e+13
 314.8264   7.82951e+13
 314.9374   8.13413e+13
 315.0486   8.68154e+13
 315.1596   9.58969e+13
 315.2707   9.79908e+13
 315.3819   1.02211e+14
 315.4930   1.04776e+14
 315.6041   1.06932e+14
 315.7152   1.08780e+14
 315.8264   1.09664e+14
 315.9376   1.06660e+14
 316.0487   1.00287e+14
 316.1599   9.41331e+13
 316.2712   8.96316e+13
 316.3824   8.73410e+13
 316.4936   8.94905e+13
 316.6049   9.33524e+13
 316.7162   9.76709e+13
 316.8275   1.01950e+14
 316.9388   1.04457e+14
 317.0500   1.07342e+14
 317.1613   1.09919e+14
 317.2727   1.12191e+14
 317.3841   1.18692e+14
 317.4955   1.25127e+14
 317.6068   1.31783e+14
 317.7183   1.33255e+14
 317.8297   1.33084e+14
 317.9411   1.33792e+14
 318.0526   1.34921e+14
 318.1640   1.32368e+14
 318.2755   1.23126e+14
 318.3869   1.12293e+14
 318.4984   1.06588e+14
 318.6100   1.04699e+14
 318.7215   1.05067e+14
 318.8330   1.06200e+14
 318.9446   1.09008e+14
 319.0561   1.12614e+14
 319.1678   1.16080e+14
 319.2794   1.22407e+14
 319.3910   1.27355e+14
 319.5026   1.25791e+14
 319.6142   1.15047e+14
 319.7260   1.08835e+14
 319.8376   1.10501e+14
 319.9493   1.15814e+14
 320.0610   1.17570e+14
 320.1727   1.20103e+14
 320.2845   1.26173e+14
 320.3962   1.29586e+14
 320.5081   1.25590e+14
 320.6199   1.28700e+14
 320.7317   1.32151e+14
 320.8435   1.37315e+14
 320.9553   1.42245e+14
 321.0671   1.44094e+14
 321.1790   1.43897e+14
 321.2909   1.41538e+14
 321.4029   1.32685e+14
 321.5148   1.24175e+14
 321.6266   1.18197e+14
 321.7386   1.15222e+14
 321.8506   1.10897e+14
 321.9626   1.11363e+14
 322.0746   1.15014e+14
 322.1866   1.14922e+14
 322.2986   1.24279e+14
 322.4107   1.27521e+14
 322.5227   1.32186e+14
 322.6348   1.27592e+14
 322.7469   1.22986e+14
 322.8590   1.28045e+14
 322.9712   1.26589e+14
 323.0833   1.17654e+14
 323.1955   1.18380e+14
 323.3076   1.12912e+14
 323.4199   1.10439e+14
 323.5320   1.13730e+14
 323.6443   1.18669e+14
 323.7566   1.20151e+14
 323.8689   1.16788e+14
 323.9811   1.14659e+14
 324.0934   1.12794e+14
 324.2057   1.14921e+14
 324.3181   1.20299e+14
 324.4304   1.18648e+14
 324.5428   1.25565e+14
 324.6552   1.28841e+14
 324.7676   1.31595e+14
 324.8801   1.30070e+14
 324.9925   1.37480e+14
 325.1050   1.42904e+14
 325.2175   1.38975e+14
 325.3300   1.33588e+14
 325.4425   1.32256e+14
 325.5551   1.31317e+14
 325.6675   1.35825e+14
 325.7801   1.36568e+14
 325.8927   1.39469e+14
 326.0053   1.49139e+14
 326.1180   1.52175e+14
 326.2306   1.53865e+14
 326.3433   1.61903e+14
 326.4559   1.70052e+14
 326.5686   1.67738e+14
 326.6813   1.70114e+14
 326.7941   1.79866e+14
 326.9069   1.71907e+14
 327.0196   1.64930e+14
 327.1324   1.68476e+14
 327.2452   1.66138e+14
 327.3580   1.69676e+14
 327.4709   1.71994e+14
 327.5837   1.67617e+14
 327.6966   1.70084e+14
 327.8095   1.71598e+14
 327.9224   1.69621e+14
 328.0353   1.68723e+14
 328.1483   1.73632e+14
 328.2612   1.76984e+14
 328.3742   1.71954e+14
 328.4873   1.66242e+14
 328.6003   1.69172e+14
 328.7133   1.62451e+14
 328.8264   1.60198e+14
 328.9395   1.61914e+14
 329.0526   1.66347e+14
 329.1657   1.63408e+14
 329.2788   1.64707e+14
 329.3920   1.60916e+14
 329.5052   1.63554e+14
 329.6184   1.68278e+14
 329.7316   1.71611e+14
 329.8448   1.67648e+14
 329.9581   1.82905e+14
 330.0713   1.79149e+14
 330.1847   1.73566e+14
 330.2980   1.91159e+14
 330.4113   1.85308e+14
 330.5247   1.83881e+14
 330.6380   1.87061e+14
 330.7515   1.85888e+14
 330.8649   1.92714e+14
 330.9782   1.93035e+14
 331.0918   1.87866e+14
 331.2052   1.83702e+14
 331.3187   1.84770e+14
 331.4322   1.81415e+14
 331.5458   1.95659e+14
 331.6593   2.11012e+14
 331.7728   2.08338e+14
 331.8865   2.14519e+14
 332.0000   2.05395e+14
 332.1136   2.03794e+14
 332.2273   2.14670e+14
 332.3410   2.02799e+14
 332.4547   2.07502e+14
 332.5684   2.24201e+14
 332.6821   2.16333e+14
 332.7958   1.99937e+14
 332.9096   2.29326e+14
 333.0234   2.02205e+14
 333.1372   2.60407e+14
 333.2510   2.59858e+14
 333.3649   1.87267e+14
 333.4787   6.27052e+13
 333.5926   3.39024e+13
 333.7065   1.47844e+13
 333.8204   1.64671e+13
 333.9344   8.49172e+12
 334.0484   6.27763e+12
 334.1623   5.10742e+12
 334.2763   4.07496e+12
 334.3903   3.23220e+12
 300.6137   2.33246e+12
 300.7313   4.05791e+12
 300.8488   7.59967e+12
 300.9663   1.65538e+13
 301.0838   6.38656e+13
 301.2013  -1.55371e+14
 301.3188  -5.77997e+13
 301.4362  -4.42860e+13
 301.5534  -5.06144e+13
 301.6708  -1.86657e+12
 301.7881   6.58709e+12
 301.9054   3.22574e+13
 302.0225   4.08683e+13
 302.1398   4.97401e+13
 302.2570   5.40153e+13
 302.3740   5.66615e+13
 302.4911   5.71818e+13
 302.6082   6.54470e+13
 302.7252   6.74347e+13
 302.8423   6.58686e+13
 302.9592   6.51821e+13
 303.0762   6.51608e+13
 303.1930   6.83130e+13
 303.3099   6.94360e+13
 303.4267   6.45744e+13
 303.5436   6.13064e+13
 303.6603   5.81937e+13
 303.7770   5.85082e+13
 303.8938   6.20717e+13
 304.0104   6.22103e+13
 304.1270   6.05749e+13
 304.2437   6.61991e+13
 304.3603   6.81133e+13
 304.4768   6.94758e+13
 304.5934   6.59512e+13
 304.7098   6.69218e+13
 304.8263   6.55960e+13
 304.9427   7.22789e+13
 305.0591   7.09165e+13
 305.1755   7.50312e+13
 305.2918   7.25663e+13
 305.4081   6.64175e+13
 305.5243   6.39118e+13
 305.6406   6.49826e+13
 305.7568   6.01469e+13
 305.8729   6.21420e+13
 305.9891   6.84380e+13
 306.1052   7.65978e+13
 306.2213   8.48749e+13
 306.3373   8.67128e+13
 306.4533   8.07507e+13
 306.5693   8.19467e+13
 306.6853   8.50181e+13
 306.8012   7.81254e+13
 306.9171   9.00180e+13
 307.0330   1.07799e+14
 307.1488   1.08814e+14
 307.2646   1.01425e+14
 307.3804   9.97238e+13
 307.4961   1.07645e+14
 307.6119   8.96355e+13
 307.7275   9.98215e+13
 307.8432   1.09224e+14
 307.9588   9.34285e+13
 308.0743   1.15460e+14
 308.1899   1.02697e+14
 308.3055   8.17535e+13
 308.4209   8.78405e+13
 308.5365   1.10224e+14
 308.6519   1.25273e+14
 308.7673   1.09318e+14
 308.8827   8.91512e+13
 308.9980   9.53723e+13
 309.1134   9.25497e+13
 309.2286   7.65423e+13
 309.3439   6.81002e+13
 309.4591   5.53354e+13
 309.5744   8.47726e+13
 309.6895   9.90283e+13
 309.8047   6.90866e+13
 309.9198   7.71802e+13
 310.0349   8.46908e+13
 310.1499   5.51016e+13
 310.2649   5.14394e+13
 310.3799   7.33708e+13
 310.4949   1.10387e+14
 310.6098   1.16249e+14
 310.7247   1.12432e+14
 310.8397   1.22263e+14
 310.9545   1.33373e+14
 311.0693   1.33808e+14
 311.1842   1.18582e+14
 311.2989   1.21055e+14
 311.4136   1.30749e+14
 311.5283   1.23978e+14
 311.6430   1.17752e+14
 311.7577   1.21211e+14
 311.8723   1.00350e+14
 311.9869   9.69437e+13
 312.1015   9.27868e+13
 312.2160   9.06701e+13
 312.3305   9.22352e+13
 312.4450   1.01278e+14
 312.5594   1.16379e+14
 312.6738   1.05560e+14
 312.7882   9.63665e+13
 312.9026   1.07765e+14
 313.0169   1.10037e+14
 313.1313   1.09144e+14
 313.2455   1.07674e+14
 313.3598   1.05098e+14
 313.4740   1.02652e+14
 313.5882   1.00672e+14
 313.7025   1.06056e+14
 313.8166   1.12518e+14
 313.9307   1.22320e+14
 314.0448   1.31886e+14
 314.1589   1.27294e+14
 314.2729   1.26277e+14
 314.3870   1.18673e+14
 314.5009   8.56023e+13
 314.6148   6.44200e+13
 314.7288   7.97569e+13
 314.8427   9.64733e+13
 314.9566   1.06231e+14
 315.0704   1.18692e+14
 315.1842   1.18866e+14
 315.2980   1.15334e+14
 315.4118   1.16861e+14
 315.5255   1.15690e+14
 315.6392   1.11239e+14
 315.7529   1.04119e+14
 315.8665   8.62558e+13
 315.9802   7.00914e+13
 316.0938   6.87796e+13
 316.2075   7.31347e+13
 316.3209   8.04654e+13
 316.4345   9.62050e+13
 316.5479   1.04728e+14
 316.6614   1.03270e+14
 316.7749   1.06365e+14
 316.8883   1.12889e+14
 317.0017   1.10775e+14
 317.1151   1.18272e+14
 317.2284   1.37861e+14
 317.3418   1.46441e+14
 317.4550   1.43906e+14
 317.5684   1.36273e+14
 317.6815   1.35093e+14
 317.7947   1.42327e+14
 317.9079   1.30366e+14
 318.0211   1.01614e+14
 318.1342   8.57038e+13
 318.2473   8.38584e+13
 318.3604   8.70965e+13
 318.4735   9.37501e+13
 318.5865   1.01406e+14
 318.6995   1.09584e+14
 318.8126   1.14539e+14
 318.9255   1.20928e+14
 319.0384   1.36378e+14
 319.1513   1.35034e+14
 319.2642   1.08544e+14
 319.3770   8.72632e+13
 319.4899   9.20038e+13
 319.6027   1.07225e+14
 319.7155   1.11906e+14
 319.8282   1.14928e+14
 319.9409   1.33246e+14
 320.0536   1.39093e+14
 320.1664   1.28352e+14
 320.2790   1.32405e+14
 320.3916   1.36921e+14
 320.5043   1.44662e+14
 320.6168   1.49783e+14
 320.7294   1.48637e+14
 320.8419   1.47509e+14
 320.9545   1.34015e+14
 321.0669   1.16692e+14
 321.1793   1.03899e+14
 321.2918   9.60484e+13
 321.4042   9.47021e+13
 321.5166   9.37875e+13
 321.6290   1.04079e+14
 321.7413   1.13348e+14
 321.8536   1.17839e+14
 321.9659   1.34031e+14
 322.0782   1.40535e+14
 322.1904   1.37970e+14
 322.3026   1.21380e+14
 322.4148   1.12640e+14
 322.5270   1.23519e+14
 322.6391   1.15109e+14
 322.7512   1.01834e+14
 322.8633   9.74474e+13
 322.9754   9.04258e+13
 323.0875   9.04519e+13
 323.1996   1.05210e+14
 323.3116   1.19859e+14
 323.4235   1.15919e+14
 323.5355   1.02670e+14
 323.6474   1.03473e+14
 323.7593   1.06064e+14
 323.8712   1.15785e+14
 323.9831   1.18549e+14
 324.0949   1.22309e+14
 324.2067   1.35908e+14
 324.3185   1.33440e+14
 324.4303   1.28487e+14
 324.5421   1.30704e+14
 324.6538   1.41759e+14
 324.7655   1.39250e+14
 324.8772   1.21322e+14
 324.9888   1.17924e+14
 325.1005   1.23806e+14
 325.2121   1.26685e+14
 325.3237   1.32919e+14
 325.4353   1.34646e+14
 325.5468   1.43475e+14
 325.6584   1.66011e+14
 325.7699   1.68788e+14
 325.8813   1.65272e+14
 325.9928   1.75601e+14
 326.1042   1.79400e+14
 326.2156   1.70738e+14
 326.3270   1.69367e+14
 326.4384   1.66464e+14
 326.5497   1.49644e+14
 326.6611   1.53706e+14
 326.7724   1.72512e+14
 326.8837   1.76439e+14
 326.9950   1.73408e+14
 327.1062   1.64926e+14
 327.2173   1.50831e+14
 327.3286   1.56190e+14
 327.4397   1.66674e+14
 327.5509   1.69208e+14
 327.6621   1.68533e+14
 327.7732   1.57841e+14
 327.8842   1.58750e+14
 327.9954   1.54393e+14
 328.1063   1.54094e+14
 328.2174   1.59660e+14
 328.3284   1.53024e+14
 328.4394   1.57867e+14
 328.5503   1.61669e+14
 328.6612   1.47377e+14
 328.7722   1.29126e+14
 328.8831   1.35720e+14
 328.9940   1.61446e+14
 329.1049   1.82278e+14
 329.2156   1.80216e+14
 329.3264   1.78572e+14
 329.4373   1.91765e+14
 329.5480   1.91860e+14
 329.6588   1.85348e+14
 329.7695   1.90873e+14
 329.8802   1.87546e+14
 329.9909   1.88106e+14
 330.1016   2.09347e+14
 330.2122   2.03760e+14
 330.3229   1.71522e+14
 330.4335   1.67964e+14
 330.5440   1.70287e+14
 330.6546   1.46153e+14
 330.7652   1.36848e+14
 330.8757   1.58738e+14
 330.9862   1.74138e+14
 331.0967   1.74693e+14
 331.2072   1.74864e+14
 331.3177   1.68201e+14
 331.4280   1.59137e+14
 331.5384   1.49587e+14
 331.6489   1.57701e+14
 331.7593   1.72013e+14
 331.8695   1.78081e+14
 331.9799   1.77766e+14
 332.0902   1.70452e+14
 332.2006   1.66842e+14
 332.3107   1.47959e+14
 332.4210   1.37516e+14
 332.5312   1.58440e+14
 332.6414   1.81630e+14
 332.7517   1.73042e+14
 332.8618   1.62292e+14
 332.9720   1.52156e+14
 333.0821   1.50248e+14
 333.1923   1.69059e+14
 333.3023   1.70804e+14
 333.4124   1.72241e+14
 333.5225   1.59436e+14
 333.6325   1.35806e+14
 333.7425   1.27122e+14
 333.8526   1.47948e+14
 333.9626   1.63454e+14
 334.0725   1.60767e+14
 334.1825   1.61594e+14
 334.2924   1.54886e+14
 334.4023   1.67389e+14
 334.5122   1.81011e+14
 334.6221   1.81831e+14
 334.7319   1.80204e+14
 334.8418   1.73461e+14
 334.9515   1.41927e+14
 335.0614   1.29977e+14
 335.1712   1.67713e+14
 335.2809   1.83984e+14
 335.3907   1.80057e+14
 335.5004   1.76186e+14
 335.6102   1.89943e+14
 335.7198   1.92280e+14
 335.8295   1.78125e+14
 335.9391   1.38153e+14
 336.0488   9.90825e+13
 336.1584   8.40476e+13
 336.2681   1.01648e+14
 336.3777   1.45796e+14
 336.4872   1.71736e+14
 336.5968   1.79495e+14
 336.7062   1.62147e+14
 336.8158   1.39481e+14
 336.9253   1.25491e+14
 337.0347   1.17275e+14
 337.1442   1.23269e+14
 337.2537   1.19181e+14
 337.3631   1.22484e+14
 337.4725   1.43380e+14
 337.5818   1.68988e+14
 337.6913   1.89644e+14
 337.8007   1.88362e+14
 337.9099   1.66955e+14
 338.0193   1.34623e+14
 338.1286   1.16218e+14
 338.2379   1.49047e+14
 338.3472   1.64759e+14
 338.4565   1.55583e+14
 338.5656   1.68592e+14
 338.6749   1.84295e+14
 338.7841   1.77183e+14
 338.8934   1.55260e+14
 339.0025   1.79974e+14
 339.1117   1.84150e+14
 339.2208   1.55628e+14
 339.3299   1.30341e+14
 339.4391   1.32875e+14
 339.5482   1.57953e+14
 339.6572   1.71425e+14
 339.7663   1.81447e+14
 339.8754   1.91352e+14
 339.9843   1.94378e+14
 340.0934   2.12650e+14
 340.2024   2.02321e+14
 340.3113   1.82688e+14
 340.4203   1.82258e+14
 340.5293   1.71837e+14
 340.6382   1.75344e+14
 340.7471   1.65012e+14
 340.8561   1.57253e+14
 340.9649   1.61825e+14
 341.0738   1.64035e+14
 341.1827   1.83346e+14
 341.2915   1.77613e+14
 341.4003   1.44750e+14
 341.5091   1.23645e+14
 341.6180   1.42704e+14
 341.7267   1.68798e+14
 341.8355   1.67972e+14
 341.9442   1.83431e+14
 342.0529   2.02426e+14
 342.1617   1.94646e+14
 342.2704   1.76427e+14
 342.3791   1.53030e+14
 342.4877   1.55897e+14
 342.5964   1.82593e+14
 342.7050   1.71460e+14
 342.8136   1.61043e+14
 342.9223   1.80902e+14
 343.0309   2.08339e+14
 343.1395   2.07224e+14
 343.2480   1.82231e+14
 343.3566   1.53769e+14
 343.4652   1.59040e+14
 343.5736   1.96084e+14
 343.6822   1.85748e+14
 343.7907   1.62000e+14
 343.8992   1.60750e+14
 344.0076   1.49363e+14
 344.1161   9.87796e+13
 344.2245   9.13329e+13
 344.3329   1.10266e+14
 344.4413   1.11497e+14
 344.5497   1.34281e+14
 344.6582   1.36912e+14
 344.7665   1.42430e+14
 344.8748   1.64477e+14
 344.9832   1.68325e+14
 345.0915   1.88732e+14
 345.1999   1.89670e+14
 345.3082   1.53782e+14
 345.4164   1.55292e+14
 345.5247   1.90964e+14
 345.6330   1.84832e+14
 345.7413   1.71756e+14
 345.8495   1.54664e+14
 345.9577   1.40859e+14
 346.0659   1.37164e+14
 346.1741   1.26100e+14
 346.2823   1.37007e+14
 346.3904   1.68874e+14
 346.4986   1.83806e+14
 346.6067   1.56496e+14
 346.7149   1.42958e+14
 346.8230   1.74938e+14
 346.9311   1.78520e+14
 347.0392   1.80831e+14
 347.1472   1.93633e+14
 347.2553   1.65494e+14
 347.3633   1.53511e+14
 347.4713   1.48238e+14
 347.5795   1.25714e+14
 347.6874   1.12940e+14
 347.7954   1.34089e+14
 347.9034   1.66666e+14
 348.0114   1.74632e+14
 348.1193   1.71198e+14
 348.2273   1.71557e+14
 348.3352   1.57926e+14
 348.4431   1.45589e+14
 348.5510   1.49547e+14
 348.6589   1.61200e+14
 348.7668   1.93097e+14
 348.8747   1.82500e+14
 348.9826   1.46022e+14
 349.0904   1.23047e+14
 349.1982   1.37584e+14
 349.3060   1.42527e+14
 349.4138   1.39350e+14
 349.5217   1.69312e+14
 349.6295   1.50381e+14
 349.7373   1.27564e+14
 349.8450   1.29340e+14
 349.9528   1.77030e+14
 350.0605   1.99313e+14
 350.1683   1.91526e+14
 350.2760   1.89939e+14
 350.3837   2.07090e+14
 350.4914   2.09279e+14
 350.5991   1.80094e+14
 350.7068   1.74304e+14
 350.8144   1.87209e+14
 350.9220   1.98782e+14
 351.0298   1.73937e+14
 351.1373   1.58702e+14
 351.2449   1.74200e+14
 351.3525   1.58747e+14
 351.4601   1.40666e+14
 351.5677   1.42377e+14
 351.6754   1.75956e+14
 351.7828   2.06551e+14
 351.8904   2.13322e+14
 351.9979   1.97214e+14
 352.1055   1.76514e+14
 352.2130   1.59581e+14
 352.3205   1.65362e+14
 352.4280   1.44196e+14
 352.5356   1.25213e+14
 352.6429   1.22349e+14
 352.7504   1.26441e+14
 352.8579   1.73465e+14
 352.9654   1.94794e+14
 353.0728   1.90561e+14
 353.1803   1.92141e+14
 353.2877   1.70151e+14
 353.3951   1.72218e+14
 353.5024   2.06317e+14
 353.6098   2.04259e+14
 353.7172   1.93214e+14
 353.8245   1.85898e+14
 353.9319   2.06454e+14
 354.0392   2.28067e+14
 354.1465   1.95500e+14
 354.2539   1.80715e+14
 354.3613   1.98434e+14
 354.4686   2.17058e+14
 354.5758   2.11316e+14
 354.6831   2.12339e+14
 354.7904   2.07750e+14
 354.8976   1.94692e+14
 355.0049   2.17200e+14
 355.1122   2.18068e+14
 355.2194   2.07556e+14
 355.3266   1.96464e+14
 355.4338   1.75148e+14
 355.5410   1.65757e+14
 355.6482   1.95592e+14
 355.7555   2.01272e+14
 355.8627   1.86854e+14
 355.9698   1.76301e+14
 356.0770   1.90697e+14
 356.1841   1.93882e+14
 356.2912   2.12065e+14
 356.3984   2.29116e+14
 356.5055   1.84653e+14
 356.6127   1.18363e+14
 356.7197   1.24514e+14
 356.8268   1.70033e+14
 356.9340   1.61274e+14
 357.0411   1.09326e+14
 357.1481   1.19167e+14
 357.2551   1.48364e+14
 357.3623   1.66976e+14
 357.4693   1.70630e+14
 357.5763   1.70497e+14
 357.6833   1.83218e+14
 357.7904   1.90304e+14
 357.8974   1.60146e+14
 358.0045   1.46983e+14
 358.1115   1.19023e+14
 358.2184   8.46584e+13
 358.3254   1.14827e+14
 358.4324   1.42542e+14
 358.5394   1.17481e+14
 358.6463   9.63607e+13
 358.7533   1.07082e+14
 358.8602   1.27694e+14
 358.9671   1.42736e+14
 359.0740   1.57601e+14
 359.1810   2.01082e+14
 359.2879   2.11455e+14
 359.3949   1.83397e+14
 359.5017   1.87353e+14
 359.6086   2.10122e+14
 359.7155   2.28662e+14
 359.8224   2.24551e+14
 359.9293   2.15480e+14
 360.0361   2.26093e+14
 360.1429   2.44837e+14
 360.2498   2.13371e+14
 360.3566   1.76182e+14
 360.4634   1.76025e+14
 360.5703   1.65971e+14
 360.6771   1.66283e+14
 360.7840   1.87208e+14
 360.8907   1.54699e+14
 360.9976   1.22093e+14
 361.1043   1.42614e+14
 361.2112   1.81827e+14
 361.3179   1.90616e+14
 361.4246   1.68130e+14
 361.5314   1.84705e+14
 361.6381   2.09924e+14
 361.7450   2.01500e+14
 361.8517   1.54088e+14
 361.9584   1.02903e+14
 362.0651   1.27281e+14
 362.1719   1.64525e+14
 362.2785   1.90413e+14
 362.3853   2.06465e+14
 362.4920   1.87256e+14
 362.5987   2.10058e+14
 362.7054   2.47399e+14
 362.8121   2.47788e+14
 362.9188   2.39625e+14
 363.0254   2.29585e+14
 363.1321   1.64888e+14
 363.2387   1.18130e+14
 363.3455   1.54386e+14
 363.4521   1.76341e+14
 363.5587   1.68366e+14
 363.6653   1.87018e+14
 363.7720   1.93993e+14
 363.8786   2.03231e+14
 363.9852   2.24539e+14
 364.0919   2.33125e+14
 364.1984   2.26668e+14
 364.3051   2.12602e+14
 364.4117   1.98884e+14
 364.5182   1.82726e+14
 364.6249   1.77089e+14
 364.7314   1.86239e+14
 364.8380   1.54511e+14
 364.9446   1.58309e+14
 365.0512   1.78294e+14
 365.1577   1.92593e+14
 365.2643   2.11339e+14
 365.3709   2.39324e+14
 365.4774   2.37500e+14
 365.5839   2.29767e+14
 365.6905   2.35332e+14
 365.7969   2.44477e+14
 365.9035   2.50534e+14
 366.0101   2.59197e+14
 366.1165   2.50871e+14
 366.2230   2.53803e+14
 366.3296   2.42868e+14
 366.4361   2.23816e+14
 366.5425   2.26403e+14
 366.6491   2.41395e+14
 366.7556   2.29785e+14
 366.8621   2.33896e+14
 366.9685   2.16432e+14
 367.0750   2.00652e+14
 367.1815   2.27397e+14
 367.2880   2.57692e+14
 367.3944   2.48485e+14
 367.5009   2.35332e+14
 367.6073   2.48743e+14
 367.7138   2.40448e+14
 367.8203   2.04965e+14
 367.9267   2.04571e+14
 368.0331   1.95143e+14
 368.1395   1.88828e+14
 368.2460   2.10192e+14
 368.3524   2.20509e+14
 368.4589   2.31794e+14
 368.5653   2.18441e+14
 368.6718   1.99270e+14
 368.7781   1.82184e+14
 368.8845   1.77389e+14
 368.9909   2.02154e+14
 369.0973   2.32121e+14
 369.2037   2.64535e+14
 369.3101   2.68406e+14
 369.4166   2.33038e+14
 369.5229   2.22595e+14
 369.6293   2.35755e+14
 369.7357   2.34887e+14
 369.8420   2.39380e+14
 369.9484   2.58286e+14
 370.0548   2.76463e+14
 370.1612   2.67206e+14
 370.2676   2.55954e+14
 370.3739   2.42514e+14
 370.4803   2.06244e+14
 370.5867   1.73997e+14
 370.6930   1.67139e+14
 370.7994   1.81651e+14
 370.9057   1.80684e+14
 371.0121   1.79012e+14
 371.1184   2.13697e+14
 371.2248   2.42633e+14
 371.3311   2.59136e+14
 371.4375   2.85409e+14
 371.5438   2.92501e+14
 371.6501   2.67202e+14
 371.7565   2.61027e+14
 371.8628   2.51949e+14
 371.9691   1.95756e+14
 372.0754   1.35227e+14
 372.1817   1.29944e+14
 372.2881   1.41313e+14
 372.3944   1.81448e+14
 372.5007   2.22968e+14
 372.6070   2.53976e+14
 372.7133   2.49851e+14
 372.8196   1.94437e+14
 372.9259   2.11941e+14
 373.0323   2.48781e+14
 373.1385   2.27364e+14
 373.2448   2.10514e+14
 373.3512   1.79152e+14
 373.4575   1.34130e+14
 373.5637   1.06256e+14
 373.6700   1.14338e+14
 373.7763   1.21095e+14
 373.8826   1.56352e+14
 373.9890   2.02070e+14
 374.0952   2.34949e+14
 374.2015   2.50557e+14
 374.3078   2.27558e+14
 374.4141   1.86087e+14
 374.5203   1.73469e+14
 374.6266   1.47569e+14
 374.7329   1.46620e+14
 374.8393   1.53678e+14
 374.9455   1.16645e+14
 375.0518   1.10632e+14
 375.1580   1.65307e+14
 375.2643   2.18000e+14
 375.3707   2.33620e+14
 375.4769   2.52768e+14
 375.5832   2.82075e+14
 375.6894   2.83252e+14
 375.7957   2.23674e+14
 375.9019   1.55612e+14
 376.0083   1.66656e+14
 376.1145   2.10346e+14
 376.2208   2.22618e+14
 376.3270   2.20410e+14
 376.4334   1.95833e+14
 376.5396   2.09144e+14
 376.6459   2.27691e+14
 376.7521   1.97528e+14
 376.8585   1.92960e+14
 376.9647   2.24782e+14
 377.0709   2.18903e+14
 377.1772   2.09756e+14
 377.2835   2.39350e+14
 377.3898   2.64388e+14
 377.4960   2.65699e+14
 377.6023   2.58661e+14
 377.7086   2.62300e+14
 377.8148   2.68070e+14
 377.9212   2.63702e+14
 378.0274   2.77021e+14
 378.1337   2.96135e+14
 378.2400   2.92251e+14
 378.3462   2.88300e+14
 378.4525   3.00722e+14
 378.5587   3.03803e+14
 378.6651   2.54076e+14
 378.7713   2.22991e+14
 378.8775   2.20882e+14
 378.9839   2.12679e+14
 379.0901   2.07678e+14
 379.1964   2.33006e+14
 379.3027   2.39949e+14
 379.4089   2.21101e+14
 379.5153   1.99028e+14
 379.6215   1.97157e+14
 379.7278   2.02641e+14
 379.8341   1.78498e+14
 379.9403   1.61789e+14
 380.0467   1.86667e+14
 380.1529   2.25687e+14
 380.2592   2.40273e+14
 380.3655   2.61254e+14
 380.4718   2.75924e+14
 380.5781   2.70193e+14
 380.6844   2.49021e+14
 380.7906   2.24900e+14
 380.8970   2.38949e+14
 381.0032   2.66323e+14
 381.1096   2.80030e+14
 381.2158   2.74386e+14
 381.3221   2.47264e+14
 381.4285   2.12448e+14
 381.5348   1.89509e+14
 381.6411   1.65194e+14
 381.7473   1.82197e+14
 381.8537   2.16817e+14
 381.9600   2.08744e+14
 382.0663   1.56567e+14
 382.1726   1.41581e+14
 382.2790   1.81687e+14
 382.3853   2.02200e+14
 382.4916   1.69489e+14
 382.5979   1.32764e+14
 382.7043   1.23965e+14
 382.8106   1.30907e+14
 382.9169   1.35542e+14
 383.0232   1.45037e+14
 383.1295   1.58251e+14
 383.2359   1.42658e+14
 383.3423   1.20493e+14
 383.4486   1.16513e+14
 383.5550   1.28789e+14
 383.6613   1.48354e+14
 383.7676   1.49011e+14
 383.8740   1.26527e+14
 383.9804   1.19569e+14
 384.0867   1.21824e+14
 384.1931   1.44371e+14
 384.2994   1.89191e+14
 384.4058   2.13726e+14
 384.5121   2.22540e+14
 384.6185   2.20396e+14
 384.7249   2.21249e+14
 384.8313   2.34789e+14
 384.9377   2.30616e+14
 385.0440   1.98297e+14
 385.1505   1.97191e+14
 385.2568   2.24926e+14
 385.3632   2.28561e+14
 385.4696   2.12586e+14
 385.5760   1.98586e+14
 385.6825   1.86881e+14
 385.7888   1.91009e+14
 385.8953   1.75237e+14
 386.0016   1.40617e+14
 386.1081   1.32964e+14
 386.2145   1.73527e+14
 386.3209   2.26998e+14
 386.4274   2.47007e+14
 386.5338   2.35719e+14
 386.6403   2.22026e+14
 386.7467   2.20704e+14
 386.8531   2.18737e+14
 386.9595   2.10329e+14
 387.0660   1.88062e+14
 387.1725   1.60750e+14
 387.2789   1.50778e+14
 387.3854   1.72968e+14
 387.4918   2.17890e+14
 387.5984   2.47559e+14
 387.7049   2.43756e+14
 387.8113   2.05242e+14
 387.9178   1.75607e+14
 388.0244   1.90785e+14
 388.1308   2.03697e+14
 388.2373   1.83181e+14
 388.3438   1.75881e+14
 388.4503   2.11089e+14
 388.5569   2.18686e+14
 388.6633   1.82369e+14
 388.7699   1.71855e+14
 388.8764   1.74196e+14
 388.9829   1.75987e+14
 389.0895   2.01291e+14
 389.1960   2.37884e+14
 389.3026   2.53671e+14
 389.4092   2.54397e+14
 389.5156   2.45207e+14
 389.6222   2.38407e+14
 389.7288   2.60017e+14
 389.8354   2.68712e+14
 389.9420   2.55647e+14
 390.0485   2.45306e+14
 390.1551   2.62586e+14
 390.2617   2.58076e+14
 390.3683   2.37447e+14
 390.4749   2.31241e+14
 390.5816   2.11244e+14
 390.6881   2.10611e+14
 390.7948   2.43291e+14
 390.9013   2.74091e+14
 391.0080   2.78687e+14
 391.1147   2.75771e+14
 391.2212   2.89975e+14
 391.3279   2.97469e+14
 391.4346   2.87745e+14
 391.5413   2.85445e+14
 391.6479   2.77410e+14
 391.7546   2.74674e+14
 391.8612   2.68915e+14
 391.9680   2.56399e+14
 392.0746   2.26894e+14
 392.1813   2.11836e+14
 392.2880   2.14508e+14
 392.3948   2.28672e+14
 392.5014   2.38676e+14
 392.6082   2.24329e+14
 392.7148   2.04635e+14
 392.8216   1.71857e+14
 392.9284   1.42889e+14
 393.0351   1.20496e+14
 393.1419   1.02563e+14
 393.2487   8.47576e+13
 393.3554   6.47570e+13
 393.4621   5.51029e+13
 393.5690   6.41892e+13
 393.6757   8.48973e+13
 393.7825   1.08870e+14
 393.8893   1.34062e+14
 393.9961   1.65036e+14
 394.1029   1.85320e+14
 394.2098   1.93837e+14
 394.3166   1.98208e+14
 394.4234   1.81816e+14
 394.5302   1.83520e+14
 394.6371   2.26030e+14
 394.7440   2.51409e+14
 394.8508   2.42815e+14
 394.9577   2.43855e+14
 395.0645   2.67403e+14
 395.1714   2.84992e+14
 395.2783   2.66563e+14
 395.3852   2.51242e+14
 395.4921   2.77070e+14
 395.5990   2.79526e+14
 395.7060   2.54880e+14
 395.8129   2.53909e+14
 395.9198   2.71938e+14
 396.0267   2.82958e+14
 396.1337   2.43467e+14
 396.2407   1.83979e+14
 396.3476   1.68413e+14
 396.4546   1.70401e+14
 396.5615   1.61143e+14
 396.6686   1.30573e+14
 396.7756   9.74197e+13
 396.8825   6.91013e+13
 396.9896   6.25028e+13
 397.0966   8.05729e+13
 397.2036   1.10181e+14
 397.3106   1.40246e+14
 397.4177   1.62488e+14
 397.5247   1.85788e+14
 397.6318   2.17553e+14
 397.7389   2.32497e+14
 397.8459   2.54954e+14
 397.9530   2.77600e+14
 398.0602   3.03957e+14
 398.1672   3.13593e+14
 398.2743   3.02048e+14
 398.3814   2.94468e+14
 398.4886   2.88445e+14
 398.5957   3.02107e+14
 398.7029   2.94826e+14
 398.8101   2.98393e+14
 398.9172   3.29984e+14
 399.0244   3.23189e+14
 399.1315   3.21335e+14
 399.2387   3.28438e+14
 399.3459   3.40002e+14
 399.4531   3.36806e+14
 399.5603   3.24952e+14
 399.6676   3.20992e+14
 399.7747   3.05960e+14
 399.8820   2.92099e+14
 399.9892   3.22898e+14
 400.0965   3.46272e+14
 400.2039   3.36181e+14
 400.3111   3.43652e+14
 400.4184   3.61706e+14
 400.5257   3.33781e+14
 400.6329   2.73390e+14
 400.7403   2.74356e+14
 400.8477   3.10066e+14
 400.9549   3.35595e+14
 401.0623   3.34650e+14
 401.1697   3.38078e+14
 401.2770   3.38014e+14
 401.3844   3.46003e+14
 401.4917   3.35901e+14
 401.5992   3.41422e+14
 401.7065   3.46685e+14
 401.8140   3.19886e+14
 401.9214   3.19834e+14
 402.0288   3.47024e+14
 402.1363   3.41566e+14
 402.2437   3.34704e+14
 402.3512   3.36893e+14
 402.4586   3.41169e+14
 402.5662   3.21652e+14
 402.6736   3.24201e+14
 402.7812   3.36400e+14
 402.8887   3.46997e+14
 402.9962   3.53121e+14
 403.1037   3.13805e+14
 403.2112   2.75974e+14
 403.3188   2.76132e+14
 403.4264   2.66808e+14
 403.5339   2.74520e+14
 403.6416   2.80687e+14
 403.7492   3.07651e+14
 403.8567   3.33769e+14
 403.9644   3.39625e+14
 404.0720   3.28104e+14
 404.1797   3.03911e+14
 404.2873   3.08548e+14
 404.3950   3.30086e+14
 404.5026   2.96568e+14
 404.6103   2.34266e+14
 404.7180   1.88294e+14
 404.8257   2.44920e+14
 404.9335   2.85417e+14
 405.0412   2.86899e+14
 405.1489   2.99102e+14
 405.2566   2.99104e+14
 405.3644   2.78614e+14
 405.4722   2.81218e+14
 405.5799   2.66682e+14
 405.6877   2.70894e+14
 405.7955   2.72611e+14
 405.9034   2.51416e+14
 406.0112   2.60295e+14
 406.1190   2.84098e+14
 406.2269   2.94572e+14
 406.3348   2.78125e+14
 406.4427   2.33020e+14
 406.5505   2.42853e+14
 406.6584   2.73565e+14
 406.7663   2.64227e+14
 406.8743   2.63703e+14
 406.9821   2.84135e+14
 407.0902   3.00508e+14
 407.1981   2.85932e+14
 407.3061   2.62069e+14
 407.4140   2.87092e+14
 407.5220   2.99181e+14
 407.6300   2.98998e+14
 407.7380   2.90058e+14
 407.8462   2.83741e+14
 407.9542   2.88948e+14
 408.0622   2.91446e+14
 408.1703   3.00343e+14
 408.2784   3.11513e+14
 408.3865   3.20735e+14
 408.4946   3.25785e+14
 408.6027   3.27822e+14
 408.7108   3.32180e+14
 408.8189   3.36847e+14
 408.9271   3.43799e+14
 409.0353   3.53614e+14
 409.1435   3.61907e+14
 409.2516   3.68435e+14
 409.3598   3.73302e+14
 409.4681   3.68024e+14
 409.5763   3.72260e+14
 409.6846   3.69164e+14
 409.7928   3.60826e+14
 409.9011   3.56860e+14
 410.0093   3.53839e+14
 410.1176   3.45600e+14
 410.2259   3.33652e+14
 410.3343   3.14030e+14
 410.4426   3.00623e+14
 410.5510   2.99158e+14
 410.6593   2.97891e+14
 410.7677   3.03205e+14
 410.8762   3.18540e+14
 410.9845   3.27036e+14
 411.0929   1.58125e+14
 411.2013  -3.45804e+13
 411.3098  -3.17517e+13
 411.4182  -5.67847e+13
 411.5267  -5.01054e+13
 411.6352  -5.50570e+13
 411.7437  -6.32421e+13
 411.8521  -9.92879e+13
 411.9607  -3.63920e+14
 412.0693   1.55799e+14
 412.1779   5.60695e+13
 383.5220   6.92045e+11
 383.7748   2.25467e+12
 384.0275   2.85541e+12
 384.2802   9.94907e+12
 384.5328   2.03637e+13
 384.7852  -4.98250e+14
 385.0377  -3.96473e+13
 385.2901  -2.97003e+13
 385.5424  -2.34808e+13
 385.7946  -2.22839e+13
 386.0468   5.42335e+13
 386.2989   1.32616e+14
 386.5509   1.33757e+14
 386.8029   1.34239e+14
 387.0547   1.34956e+14
 387.3066   1.38530e+14
 387.5583   1.37053e+14
 387.8102   1.38520e+14
 388.0618   1.44711e+14
 388.3133   1.56307e+14
 388.5649   1.57458e+14
 388.8163   1.59704e+14
 389.0677   1.58516e+14
 389.3190   1.63334e+14
 389.5703   1.71344e+14
 389.8214   1.77999e+14
 390.0725   1.81120e+14
 390.3236   1.84072e+14
 390.5746   2.07498e+14
 390.8255   2.27386e+14
 391.0765   2.46185e+14
 391.3272   2.65157e+14
 391.5780   2.66714e+14
 391.8286   2.48758e+14
 392.0793   2.48180e+14
 392.3298   2.45478e+14
 392.5804   2.00293e+14
 392.8307   1.47587e+14
 393.0811   1.07345e+14
 393.3314   1.03673e+14
 393.5816   1.45860e+14
 393.8318   1.97634e+14
 394.0819   2.17276e+14
 394.3321   2.30510e+14
 394.5820   2.61008e+14
 394.8319   2.82594e+14
 395.0818   2.88709e+14
 395.3315   2.86359e+14
 395.5813   2.83768e+14
 395.8310   2.71930e+14
 396.0806   2.18013e+14
 396.3302   1.70549e+14
 396.5797   1.23188e+14
 396.8291   9.45444e+13
 397.0785   1.31724e+14
 397.3278   1.92516e+14
 397.5770   2.47211e+14
 397.8262   2.93890e+14
 398.0753   3.15932e+14
 398.3244   3.11775e+14
 398.5734   3.17903e+14
 398.8224   3.34218e+14
 399.0713   3.45567e+14
 399.3201   3.47675e+14
 399.5689   3.35761e+14
 399.8176   3.37059e+14
 400.0662   3.59082e+14
 400.3149   3.55644e+14
 400.5634   3.30417e+14
 400.8118   3.41834e+14
 401.0602   3.65957e+14
 401.3086   3.71928e+14
 401.5568   3.70443e+14
 401.8051   3.67579e+14
 402.0533   3.73350e+14
 402.3014   3.74049e+14
 402.5494   3.74419e+14
 402.7975   3.75883e+14
 403.0454   3.52344e+14
 403.2932   3.25325e+14
 403.5411   3.41757e+14
 403.7889   3.76311e+14
 404.0366   3.85524e+14
 404.2843   3.60875e+14
 404.5319   3.19571e+14
 404.7794   3.19636e+14
 405.0269   3.60640e+14
 405.2744   3.67875e+14
 405.5217   3.49675e+14
 405.7690   3.37638e+14
 406.0163   3.38652e+14
 406.2635   3.27490e+14
 406.5107   3.15464e+14
 406.7577   3.30466e+14
 407.0048   3.44417e+14
 407.2517   3.41023e+14
 407.4987   3.37254e+14
 407.7455   3.29301e+14
 407.9923   3.39408e+14
 408.2391   3.61152e+14
 408.4857   3.63078e+14
 408.7324   3.74409e+14
 408.9791   3.89696e+14
 409.2255   3.84042e+14
 409.4721   3.68314e+14
 409.7184   3.46739e+14
 409.9648   3.14525e+14
 410.2112   2.88747e+14
 410.4575   3.06901e+14
 410.7036   3.45717e+14
 410.9497   3.61985e+14
 411.1959   3.69606e+14
 411.4419   3.84351e+14
 411.6878   3.91282e+14
 411.9339   3.82710e+14
 412.1797   3.77817e+14
 412.4255   3.80289e+14
 412.6714   3.76480e+14
 412.9171   3.68382e+14
 413.1627   3.54456e+14
 413.4084   3.50606e+14
 413.6539   3.73165e+14
 413.8994   3.96667e+14
 414.1448   3.84624e+14
 414.3902   3.57897e+14
 414.6357   3.62537e+14
 414.8809   3.77895e+14
 415.1261   3.74885e+14
 415.3714   3.63543e+14
 415.6165   3.57447e+14
 415.8616   3.67762e+14
 416.1067   3.86597e+14
 416.3516   3.99059e+14
 416.5966   3.94509e+14
 416.8415   3.82177e+14
 417.0863   3.67340e+14
 417.3311   3.49884e+14
 417.5758   3.48671e+14
 417.8205   3.60667e+14
 418.0652   3.65463e+14
 418.3097   3.64358e+14
 418.5543   3.60686e+14
 418.7988   3.56146e+14
 419.0431   3.66396e+14
 419.2876   3.83997e+14
 419.5319   3.75239e+14
 419.7761   3.49908e+14
 420.0204   3.37943e+14
 420.2646   3.48091e+14
 420.5087   3.72548e+14
 420.7528   3.93077e+14
 420.9969   3.98138e+14
 421.2408   3.98648e+14
 421.4847   3.86859e+14
 421.7286   3.77379e+14
 421.9725   3.89653e+14
 422.2163   3.90875e+14
 422.4600   3.44864e+14
 422.7037   3.05281e+14
 422.9474   3.41256e+14
 423.1910   3.84477e+14
 423.4345   3.75458e+14
 423.6780   3.55932e+14
 423.9215   3.58353e+14
 424.1649   3.75970e+14
 424.4083   3.88721e+14
 424.6516   3.81984e+14
 424.8949   3.57533e+14
 425.1381   3.53718e+14
 425.3812   3.65254e+14
 425.6244   3.72669e+14
 425.8675   3.62464e+14
 426.1105   3.48170e+14
 426.3534   3.71142e+14
 426.5964   3.96939e+14
 426.8393   3.78030e+14
 427.0821   3.33340e+14
 427.3250   3.11821e+14
 427.5677   3.37213e+14
 427.8104   3.70963e+14
 428.0530   3.72557e+14
 428.2957   3.66264e+14
 428.5382   3.59682e+14
 428.7807   3.41457e+14
 429.0233   3.28152e+14
 429.2657   3.39079e+14
 429.5081   3.46251e+14
 429.7504   3.13422e+14
 429.9928   2.69154e+14
 430.2350   2.54672e+14
 430.4771   2.62192e+14
 430.7194   2.52276e+14
 430.9615   2.41356e+14
 431.2036   2.68408e+14
 431.4456   3.34712e+14
 431.6876   4.06317e+14
 431.9296   4.34904e+14
 432.1714   4.05710e+14
 432.4133   3.39990e+14
 432.6552   3.22818e+14
 432.8969   3.76745e+14
 433.1387   4.13409e+14
 433.3803   4.16836e+14
 433.6220   3.93445e+14
 433.8636   3.31387e+14
 434.1051   2.96921e+14
 434.3467   3.32643e+14
 434.5882   3.82283e+14
 434.8296   4.06825e+14
 435.0710   3.93483e+14
 435.3124   3.73269e+14
 435.5536   3.86511e+14
 435.7949   4.03436e+14
 436.0361   4.11121e+14
 436.2773   4.25038e+14
 436.5184   4.33261e+14
 436.7595   4.21515e+14
 437.0006   4.08970e+14
 437.2416   3.99486e+14
 437.4826   3.82534e+14
 437.7235   3.90908e+14
 437.9645   4.04757e+14
 438.2053   3.65366e+14
 438.4461   3.18555e+14
 438.6869   3.43833e+14
 438.9276   3.79478e+14
 439.1683   3.87506e+14
 439.4089   3.95242e+14
 439.6497   4.09409e+14
 439.8902   4.14707e+14
 440.1307   4.01389e+14
 440.3712   3.78263e+14
 440.6117   3.71143e+14
 440.8521   3.91951e+14
 441.0924   4.28353e+14
 441.3328   4.36012e+14
 441.5731   4.11547e+14
 441.8134   4.21247e+14
 442.0536   4.47720e+14
 442.2938   4.39043e+14
 442.5339   4.31096e+14
 442.7740   4.39939e+14
 443.0141   4.40204e+14
 443.2541   4.30187e+14
 443.4941   4.15547e+14
 443.7341   4.28281e+14
 443.9739   4.50507e+14
 444.2138   4.34365e+14
 444.4537   4.33239e+14
 444.6935   4.52359e+14
 444.9333   4.57205e+14
 445.1730   4.51690e+14
 445.4127   4.24786e+14
 445.6523   3.99991e+14
 445.8920   4.00271e+14
 446.1315   4.05706e+14
 446.3712   4.24171e+14
 446.6106   4.41014e+14
 446.8501   4.39121e+14
 447.0896   4.42531e+14
 447.3290   4.63758e+14
 447.5684   4.78142e+14
 447.8076   4.79244e+14
 448.0470   4.51673e+14
 448.2862   4.37759e+14
 448.5254   4.66287e+14
 448.7646   4.75718e+14
 449.0038   4.56674e+14
 449.2429   4.58084e+14
 449.4820   4.59211e+14
 449.7210   4.62702e+14
 449.9601   4.76315e+14
 450.1990   4.81523e+14
 450.4380   4.97202e+14
 450.6769   5.07513e+14
 450.9158   5.02863e+14
 451.1547   4.99239e+14
 451.3935   4.86593e+14
 451.6322   4.78210e+14
 451.8710   4.81302e+14
 452.1097   4.86460e+14
 452.3484   4.79799e+14
 452.5869   4.55861e+14
 452.8256   4.28826e+14
 453.0642   4.25898e+14
 453.3027   4.35695e+14
 453.5413   4.38795e+14
 453.7798   4.65162e+14
 454.0182   4.83129e+14
 454.2567   4.78742e+14
 454.4950   4.74648e+14
 454.7333   4.62615e+14
 454.9717   4.50219e+14
 455.2099   4.52418e+14
 455.4482   4.57113e+14
 455.6864   4.64414e+14
 455.9246   4.86045e+14
 456.1628   4.96599e+14
 456.4009   4.81110e+14
 456.6390   4.69927e+14
 456.8771   4.84332e+14
 457.1151   4.83622e+14
 457.3531   4.84250e+14
 457.5911   4.95473e+14
 457.8289   4.90371e+14
 458.0669   4.66290e+14
 458.3048   4.54394e+14
 458.5427   4.56867e+14
 458.7804   4.70406e+14
 459.0183   4.82832e+14
 459.2561   4.73764e+14
 459.4937   4.65640e+14
 459.7315   4.66751e+14
 459.9692   4.66389e+14
 460.2068   4.68957e+14
 460.4444   4.72286e+14
 460.6820   4.81535e+14
 460.9195   4.95509e+14
 461.1571   4.93487e+14
 461.3945   4.84687e+14
 461.6320   4.87976e+14
 461.8694   4.86217e+14
 462.1069   4.89528e+14
 462.3443   4.94731e+14
 462.5816   4.94021e+14
 462.8189   4.94566e+14
 463.0562   4.96851e+14
 463.2935   4.93115e+14
 463.5308   4.89517e+14
 463.7680   4.80003e+14
 464.0051   4.75447e+14
 464.2423   4.84700e+14
 464.4794   4.80767e+14
 464.7166   4.58334e+14
 464.9536   4.58542e+14
 465.1906   4.78719e+14
 465.4277   4.80399e+14
 465.6646   4.74678e+14
 465.9017   4.92494e+14
 466.1386   5.01927e+14
 466.3756   4.86351e+14
 466.6124   4.56275e+14
 466.8493   4.34207e+14
 467.0862   4.56561e+14
 467.3229   4.79853e+14
 467.5598   4.86983e+14
 467.7965   4.87669e+14
 468.0332   4.70842e+14
 468.2699   4.71149e+14
 468.5067   4.84396e+14
 468.7433   4.89799e+14
 468.9799   4.85102e+14
 469.2166   4.80692e+14
 469.4532   4.86941e+14
 469.6897   4.91911e+14
 469.9262   4.76651e+14
 470.1628   4.56836e+14
 470.3993   4.51218e+14
 470.6357   4.61032e+14
 470.8722   4.63037e+14
 471.1086   4.70439e+14
 471.3450   4.79000e+14
 471.5814   4.81168e+14
 471.8177   4.97311e+14
 472.0541   5.11563e+14
 472.2904   5.11083e+14
 472.5266   5.12405e+14
 472.7629   4.93941e+14
 472.9991   4.70399e+14
 473.2353   4.75206e+14
 473.4715   4.88454e+14
 473.7076   4.86157e+14
 473.9438   4.91447e+14
 474.1799   5.02341e+14
 474.4160   5.06010e+14
 474.6521   5.10914e+14
 474.8881   5.12099e+14
 475.1242   5.09112e+14
 475.3602   4.97378e+14
 475.5962   4.85483e+14
 475.8322   4.93859e+14
 476.0680   5.02964e+14
 476.3040   4.89071e+14
 476.5399   4.70673e+14
 476.7758   4.76501e+14
 477.0117   4.96535e+14
 477.2475   5.03191e+14
 477.4833   5.10769e+14
 477.7191   5.25004e+14
 477.9549   5.25706e+14
 478.1906   5.21297e+14
 478.4263   5.10511e+14
 478.6621   4.98721e+14
 478.8978   4.93592e+14
 479.1335   4.98000e+14
 479.3691   5.11733e+14
 479.6048   5.25615e+14
 479.8403   5.15349e+14
 480.0760   5.00396e+14
 480.3116   5.05067e+14
 480.5471   5.06912e+14
 480.7827   4.97052e+14
 481.0181   4.99317e+14
 481.2537   5.07544e+14
 481.4891   5.14676e+14
 481.7247   5.21064e+14
 481.9601   5.25610e+14
 482.1955   5.18019e+14
 482.4309   5.00292e+14
 482.6664   5.04014e+14
 482.9017   5.09843e+14
 483.1371   4.99821e+14
 483.3724   5.00911e+14
 483.6078   5.04142e+14
 483.8431   4.97549e+14
 484.0783   4.83340e+14
 484.3137   4.79829e+14
 484.5489   4.92062e+14
 484.7841   4.95501e+14
 485.0193   4.91005e+14
 485.2546   4.90302e+14
 485.4897   4.69133e+14
 485.7249   4.45512e+14
 485.9601   4.04391e+14
 486.1952   3.44617e+14
 486.4303   3.66716e+14
 486.6654   4.36155e+14
 486.9005   4.61841e+14
 487.1355   4.41357e+14
 487.3706   4.35721e+14
 487.6057   4.64381e+14
 487.8408   4.77021e+14
 488.0758   4.89780e+14
 488.3108   4.93831e+14
 488.5457   4.77385e+14
 488.7807   4.64213e+14
 489.0157   4.49511e+14
 489.2505   4.46893e+14
 489.4854   4.89710e+14
 489.7205   5.21734e+14
 489.9554   5.15153e+14
 490.1901   5.06355e+14
 490.4250   4.98375e+14
 490.6599   5.03519e+14
 490.8947   5.00937e+14
 491.1296   4.77101e+14
 491.3644   4.85777e+14
 491.5992   5.08108e+14
 491.8340   4.78791e+14
 492.0687   4.28175e+14
 492.3035   4.40828e+14
 492.5382   4.75131e+14
 492.7729   4.94468e+14
 493.0077   5.12010e+14
 493.2424   5.07518e+14
 493.4771   4.89276e+14
 493.7118   4.78335e+14
 493.9464   4.66936e+14
 494.1812   4.85108e+14
 494.4158   5.16522e+14
 494.6504   5.13157e+14
 494.8850   5.13606e+14
 495.1197   5.21088e+14
 495.3542   5.15543e+14
 495.5888   4.98795e+14
 495.8234   4.61861e+14
 496.0580   4.81637e+14
 496.2925   5.26145e+14
 496.5270   5.17717e+14
 496.7616   5.03479e+14
 496.9961   4.98130e+14
 497.2307   5.06414e+14
 497.4651   5.21262e+14
 497.6996   5.21438e+14
 497.9342   5.06767e+14
 498.1686   4.82603e+14
 498.4030   4.53745e+14
 498.6375   4.63299e+14
 498.8720   5.03616e+14
 499.1064   5.09263e+14
 499.3408   5.02880e+14
 499.5753   5.10650e+14
 499.8097   5.14093e+14
 500.0440   4.98168e+14
 500.2784   4.83914e+14
 500.5128   4.75131e+14
 500.7471   4.68222e+14
 500.9815   4.89976e+14
 501.2159   4.92727e+14
 501.4501   4.66262e+14
 501.6845   4.65963e+14
 501.9189   4.72849e+14
 502.1531   4.80634e+14
 502.3875   4.91823e+14
 502.6217   4.95869e+14
 502.8560   4.94252e+14
 503.0903   5.04599e+14
 503.3246   5.24288e+14
 503.5589   5.12859e+14
 503.7932   4.92850e+14
 504.0274   4.70005e+14
 504.2617   4.57597e+14
 504.4960   4.96998e+14
 504.7301   5.24938e+14
 504.9644   5.03479e+14
 505.1986   4.88195e+14
 505.4329   5.07271e+14
 505.6670   5.24587e+14
 505.9012   5.29436e+14
 506.1355   5.35092e+14
 506.3696   5.30387e+14
 506.6038   5.07395e+14
 506.8380   4.98681e+14
 507.0721   5.09934e+14
 507.3063   5.07747e+14
 507.5405   5.01468e+14
 507.7747   5.06766e+14
 508.0089   4.81670e+14
 508.2430   4.69233e+14
 508.4771   4.93111e+14
 508.7112   5.10665e+14
 508.9454   5.18273e+14
 509.1795   5.20760e+14
 509.4137   5.28518e+14
 509.6477   5.20707e+14
 509.8819   4.83729e+14
 510.1160   4.83165e+14
 510.3502   5.11656e+14
 510.5842   5.11730e+14
 510.8183   4.97206e+14
 511.0524   4.91208e+14
 511.2865   5.08451e+14
 511.5206   5.22376e+14
 511.7548   5.26145e+14
 511.9888   5.30488e+14
 512.2229   5.16191e+14
 512.4569   4.92492e+14
 512.6910   4.83811e+14
 512.9250   4.88568e+14
 513.1592   4.94856e+14
 513.3933   5.00133e+14
 513.6273   5.02665e+14
 513.8615   4.87146e+14
 514.0954   4.74101e+14
 514.3295   4.77263e+14
 514.5635   4.85942e+14
 514.7977   4.89680e+14
 515.0316   4.90952e+14
 515.2657   4.95693e+14
 515.4998   4.92884e+14
 515.7339   5.03788e+14
 515.9679   5.13941e+14
 516.2020   5.05551e+14
 516.4359   4.84603e+14
 516.6700   4.31294e+14
 516.9041   3.91110e+14
 517.1381   3.97810e+14
 517.3722   3.89461e+14
 517.6062   4.38984e+14
 517.8403   5.09219e+14
 518.0744   5.06243e+14
 518.3083   4.27256e+14
 518.5424   3.84427e+14
 518.7766   4.49293e+14
 519.0105   4.94410e+14
 519.2446   4.75825e+14
 519.4786   4.69298e+14
 519.7127   4.84035e+14
 519.9467   4.99771e+14
 520.1807   5.13775e+14
 520.4148   5.03419e+14
 520.6489   4.80016e+14
 520.8829   4.68074e+14
 521.1171   4.90159e+14
 521.3511   5.19769e+14
 521.5851   5.05157e+14
 521.8192   4.90852e+14
 522.0532   5.13047e+14
 522.2873   5.25846e+14
 522.5214   5.01201e+14
 522.7555   4.59265e+14
 522.9896   4.70284e+14
 523.2236   4.97079e+14
 523.4577   4.87688e+14
 523.6918   5.00728e+14
 523.9258   5.25593e+14
 524.1600   5.31739e+14
 524.3940   5.26988e+14
 524.6282   5.27412e+14
 524.8622   5.21932e+14
 525.0964   5.10953e+14
 525.3305   5.12634e+14
 525.5645   5.14697e+14
 525.7987   5.27079e+14
 526.0328   5.37745e+14
 526.2669   5.03047e+14
 526.5010   4.56614e+14
 526.7352   4.47062e+14
 526.9694   4.38777e+14
 527.2034   4.49869e+14
 527.4376   4.81992e+14
 527.6718   4.95061e+14
 527.9059   5.20783e+14
 528.1400   5.22696e+14
 528.3743   4.98056e+14
 528.6083   5.12034e+14
 528.8427   5.42468e+14
 529.0768   5.52299e+14
 529.3109   5.51732e+14
 529.5451   5.40977e+14
 529.7794   5.12768e+14
 530.0135   5.03146e+14
 530.2478   5.19120e+14
 530.4820   5.35663e+14
 530.7162   5.46528e+14
 530.9505   5.47645e+14
 531.1847   5.55224e+14
 531.4189   5.52225e+14
 531.6532   5.37234e+14
 531.8875   5.34360e+14
 532.1217   5.41126e+14
 532.3560   5.23895e+14
 532.5903   5.05279e+14
 532.8246   4.74683e+14
 533.0589   4.78475e+14
 533.2932   5.18624e+14
 533.5275   5.37440e+14
 533.7618   5.41094e+14
 533.9961   5.21202e+14
 534.2305   5.10516e+14
 534.4648   5.26276e+14
 534.6992   5.31398e+14
 534.9335   5.23196e+14
 535.1679   5.28722e+14
 535.4023   5.42626e+14
 535.6367   5.53565e+14
 535.8711   5.61475e+14
 536.1055   5.55289e+14
 536.3398   5.39373e+14
 536.5743   5.21435e+14
 536.8087   5.15114e+14
 537.0432   4.98300e+14
 537.2776   4.94727e+14
 537.5121   5.27225e+14
 537.7466   5.46141e+14
 537.9811   5.40489e+14
 538.2155   5.31126e+14
 538.4501   5.26867e+14
 538.6846   5.37631e+14
 538.9191   5.38889e+14
 539.1537   5.24827e+14
 539.3882   5.15238e+14
 539.6227   5.12657e+14
 539.8574   5.07446e+14
 540.0919   5.13009e+14
 540.3265   5.15014e+14
 540.5611   4.89752e+14
 540.7957   4.89674e+14
 541.0303   5.04013e+14
 541.2650   5.12526e+14
 541.4996   5.22291e+14
 541.7343   5.28485e+14
 541.9689   5.36928e+14
 542.2036   5.32053e+14
 542.4384   5.18086e+14
 542.6730   5.25935e+14
 542.9078   5.28601e+14
 543.1426   5.16272e+14
 543.3772   5.16456e+14
 543.6121   5.13410e+14
 543.8468   5.32249e+14
 544.0815   5.53113e+14
 544.3163   5.54398e+14
 544.5512   5.30953e+14
 544.7860   5.10530e+14
 545.0209   5.33167e+14
 545.2557   5.53693e+14
 545.4906   5.31835e+14
 545.7255   5.22191e+14
 545.9604   5.44669e+14
 546.1953   5.43362e+14
 546.4302   5.23856e+14
 546.6651   5.28638e+14
 546.9001   5.42122e+14
 547.1350   5.45263e+14
 547.3700   5.37652e+14
 547.6050   5.16449e+14
 547.8401   5.06486e+14
 548.0751   5.18661e+14
 548.3101   5.26080e+14
 548.5452   5.40177e+14
 548.7803   5.39097e+14
 549.0153   5.35190e+14
 549.2505   5.42460e+14
 549.4857   5.41216e+14
 549.7208   5.37030e+14
 549.9559   5.41420e+14
 550.1911   5.37839e+14
 550.4262   5.32939e+14
 550.6614   5.32367e+14
 550.8967   5.34605e+14
 551.1320   5.35643e+14
 551.3672   5.26774e+14
 551.6025   5.31472e+14
 551.8376   5.46221e+14
 552.0730   5.51446e+14
 552.3084   5.50796e+14
 552.5438   5.43811e+14
 552.7791   5.21282e+14
 553.0145   5.14958e+14
 553.2498   5.35416e+14
 553.4852   5.37531e+14
 553.7206   5.35389e+14
 553.9561   5.41793e+14
 554.1916   5.46004e+14
 554.4271   5.41253e+14
 554.6625   5.39144e+14
 554.8981   5.47970e+14
 555.1336   5.54387e+14
 555.3692   5.46255e+14
 555.6049   5.39729e+14
 555.8404   5.41639e+14
 556.0760   5.42221e+14
 556.3116   5.34816e+14
 556.5473   5.27774e+14
 556.7830   5.27542e+14
 557.0187   5.26680e+14
 557.2544   5.20458e+14
 557.4901   5.22856e+14
 557.7258   5.32957e+14
 557.9616   5.40515e+14
 558.1974   5.41203e+14
 558.4333   5.37441e+14
 558.6691   5.14157e+14
 558.9049   4.91844e+14
 559.1409   5.06109e+14
 559.3767   5.18960e+14
 559.6127   5.24344e+14
 559.8486   5.26694e+14
 560.0845   5.15906e+14
 560.3205   5.10898e+14
 560.5565   5.31839e+14
 560.7925   5.55551e+14
 561.0286   5.58404e+14
 561.2646   5.56717e+14
 561.5007   5.26943e+14
 561.7368   5.08383e+14
 561.9730   5.27267e+14
 562.2091   5.41048e+14
 562.4453   5.31561e+14
 562.6815   5.27492e+14
 562.9178   5.43586e+14
 563.1540   5.52740e+14
 563.3903   5.47310e+14
 563.6266   5.36418e+14
 563.8629   5.31324e+14
 564.0992   5.31991e+14
 564.3356   5.33477e+14
 564.5720   5.39964e+14
 564.8084   5.45956e+14
 565.0448   5.43277e+14
 565.2812   5.39836e+14
 565.5178   5.32880e+14
 565.7543   5.19262e+14
 565.9907   5.12549e+14
 566.2274   5.17587e+14
 566.4639   5.30039e+14
 566.7006   5.36822e+14
 566.9372   5.39843e+14
 567.1738   5.47692e+14
 567.4105   5.53405e+14
 567.6472   5.50988e+14
 567.8840   5.49561e+14
 568.1206   5.44039e+14
 568.3574   5.32717e+14
 568.5943   5.28852e+14
 568.8311   5.29255e+14
 569.0680   5.35361e+14
 569.3049   5.46001e+14
 569.5417   5.49584e+14
 569.7787   5.50792e+14
 570.0156   5.44854e+14
 570.2526   5.39511e+14
 570.4896   5.37932e+14
 570.7266   5.27934e+14
 570.9637   5.11424e+14
 571.2008   5.11129e+14
 571.4379   5.30465e+14
 571.6751   5.46448e+14
 571.9122   5.52856e+14
 572.1495   5.59285e+14
 572.3867   5.63736e+14
 572.6239   5.63477e+14
 572.8612   5.61952e+14
 573.0986   5.59228e+14
 573.3358   5.56754e+14
 573.5732   5.61494e+14
 573.8105   5.63485e+14
 574.0480   5.62539e+14
 574.2855   5.60807e+14
 574.5229   5.62511e+14
 574.7604   5.57426e+14
 574.9979   5.54103e+14
 575.2356   5.47404e+14
 575.4731   5.37086e+14
 575.7108   5.47503e+14
 575.9484   5.57502e+14
 576.1861   5.47145e+14
 576.4238   5.44903e+14
 576.6616   5.58989e+14
 576.8993   5.66894e+14
 577.1371   5.62899e+14
 577.3750   5.57099e+14
 577.6128   5.57593e+14
 577.8506   5.60101e+14
 578.0886   5.47758e+14
 578.3266   5.35382e+14
 578.5645   5.34961e+14
 578.8026   5.45803e+14
 579.0406   5.52595e+14
 579.2787   5.50925e+14
 579.5167   5.55860e+14
 579.7549   5.57676e+14
 579.9930   5.58855e+14
 580.2312   5.64359e+14
 580.4695   5.58349e+14
 580.7078   5.51845e+14
 580.9460   5.56517e+14
 581.1843   5.62946e+14
 581.4227   5.62814e+14
 581.6611   5.55890e+14
 581.8995   5.60268e+14
 582.1379   5.68453e+14
 582.3764   5.69226e+14
 582.6149   5.69038e+14
 582.8535   5.68317e+14
 583.0920   5.67999e+14
 583.3307   5.65843e+14
 583.5693   5.65002e+14
 583.8080   5.64333e+14
 584.0468   5.66317e+14
 584.2854   5.69703e+14
 584.5242   5.68627e+14
 584.7631   5.63389e+14
 585.0019   5.62275e+14
 585.2407   5.59166e+14
 585.4796   5.52713e+14
 585.7185   5.40626e+14
 585.9576   5.37186e+14
 586.1966   5.46954e+14
 586.4357   5.56300e+14
 586.6747   5.60695e+14
 586.9138   5.63568e+14
 587.1530   5.68089e+14
 587.3922   5.69427e+14
 587.6313   5.69573e+14
 587.8706   5.69538e+14
 588.1099   5.67803e+14
 588.3492   5.65060e+14
 588.5886   5.63358e+14
 588.8280   5.37837e+14
 589.0674   4.87773e+14
 589.3068   4.96322e+14
 589.5463   5.04133e+14
 589.7859   5.06347e+14
 590.0255   5.45784e+14
 590.2651   5.69959e+14
 590.5048   5.71685e+14
 590.7444   5.71362e+14
 590.9842   5.75534e+14
 591.2239   5.76205e+14
 591.4636   5.66851e+14
 591.7036   5.66948e+14
 591.9434   5.78471e+14
 592.1833   5.84853e+14
 592.4233   5.86094e+14
 592.6631   5.86168e+14
 592.9033   5.76824e+14
 593.1432   5.73124e+14
 593.3834   5.78678e+14
 593.6235   5.83617e+14
 593.8636   5.90344e+14
 594.1039   5.93152e+14
 594.3441   5.92801e+14
 594.5844   5.95325e+14
 594.8248   5.89298e+14
 595.0651   5.84998e+14
 595.3055   5.86914e+14
 595.5459   5.90996e+14
 595.7864   5.95269e+14
 596.0269   6.00287e+14
 596.2674   6.06281e+14
 596.5081   6.07985e+14
 596.7486   6.08582e+14
 596.9893   6.12876e+14
 597.2301   6.16755e+14
 597.4708   6.13265e+14
 597.7115   6.04651e+14
 597.9524   6.08345e+14
 598.1933   6.15483e+14
 598.4341   6.07198e+14
 598.6751   6.02504e+14
 598.9161   6.13536e+14
 599.1571   6.23316e+14
 599.3982   6.29253e+14
 599.6393   6.29198e+14
 599.8804   6.25078e+14
 600.1216   6.28023e+14
 600.3629   6.29632e+14
 600.6041   6.28891e+14
 600.8455   6.24253e+14
 601.0869   6.28689e+14
 601.3282   6.36011e+14
 601.5696   6.35014e+14
 601.8112   6.37496e+14
 602.0526   6.33693e+14
 602.2942   6.30069e+14
 602.5358   6.38898e+14
 602.7775   6.51809e+14
 603.0192   6.62218e+14
 603.2609   6.72024e+14
 603.5027   6.78002e+14
 603.7445   6.81199e+14
 603.9863   6.83373e+14
 604.2283   6.81452e+14
 604.4702   6.83363e+14
 604.7122   6.90498e+14
 604.9543   6.95855e+14
 605.1964   6.98195e+14
 605.4385   6.94473e+14
 605.6806   6.90855e+14
 605.9227   6.96814e+14
 606.1650   7.06382e+14
 606.4073   7.03738e+14
 606.6497   6.96913e+14
 606.8920   7.05423e+14
 607.1345   7.17568e+14
 607.3770   7.22212e+14
 607.6194   7.20034e+14
 607.8620   7.08808e+14
 608.1046   7.03952e+14
 608.3473   7.06742e+14
 608.5900   7.05295e+14
 608.8327   7.03683e+14
 609.0756   7.01186e+14
 609.3184   6.99566e+14
 609.5612   6.98733e+14
 609.8041   6.99364e+14
 610.0471   6.93392e+14
 610.2901   6.65738e+14
 610.5331   6.60563e+14
 610.7763   6.75496e+14
 611.0195   6.75346e+14
 611.2627   6.71174e+14
 611.5059   6.67533e+14
 611.7491   6.61760e+14
 611.9926   6.55846e+14
 612.2359   6.38362e+14
 612.4794   6.33761e+14
 612.7228   6.43983e+14
 612.9663   6.39554e+14
 613.2100   6.39534e+14
 613.4535   6.35382e+14
 613.6973   6.08960e+14
 613.9409   6.02941e+14
 614.1847   6.15673e+14
 614.4285   6.21112e+14
 614.6724   6.24806e+14
 614.9163   6.22651e+14
 615.1603   6.22678e+14
 615.4042   6.18635e+14
 615.6483   6.08843e+14
 615.8924   6.09552e+14
 616.1365   5.87977e+14
 616.3807   5.68061e+14
 616.6249   5.84607e+14
 616.8693   5.91965e+14
 617.1136   5.84313e+14
 617.3579   5.94085e+14
 617.6024   5.96705e+14
 617.8469   5.95594e+14
 618.0914   5.96863e+14
 618.3361   5.98473e+14
 618.5806   5.95400e+14
 618.8254   5.86003e+14
 619.0702   5.72390e+14
 619.3149   5.63272e+14
 619.5598   5.69653e+14
 619.8046   5.73963e+14
 620.0496   5.65223e+14
 620.2946   5.52016e+14
 620.5396   5.65331e+14
 620.7847   5.61107e+14
 621.0298   5.57085e+14
 621.2751   5.47445e+14
 621.5203   5.29108e+14
 621.7656   5.26057e+14
 622.0110   5.22720e+14
 622.2563   5.20195e+14
 622.5017   5.21935e+14
 622.7473   5.17793e+14
 622.9929   5.05937e+14
 623.2385   4.91862e+14
 623.4841   4.96351e+14
 623.7299   5.00976e+14
 623.9756   4.93367e+14
 624.2214   4.91163e+14
 624.4672   4.83747e+14
 624.7133   4.73900e+14
 624.9592   4.79339e+14
 625.2051   4.83579e+14
 625.4512   4.69133e+14
 625.6974   4.63664e+14
 625.9437   2.87979e+14
 626.1898  -1.29579e+12
 626.4362  -6.72246e+12
 626.6825  -6.67147e+12
 626.9290  -4.96182e+12
 627.1754  -7.59938e+12
 627.4218  -8.17732e+12
 627.6684  -1.00949e+13
 627.9150  -1.57231e+13
 628.1617  -2.81774e+14
 628.4084   1.09662e+13
 595.3140  -1.56330e+11
 595.5381  -1.96875e+11
 595.7624  -2.42729e+11
 595.9865  -2.71524e+11
 596.2106  -3.27670e+11
 596.4347  -4.61590e+11
 596.6586  -4.41985e+11
 596.8826  -4.87350e+11
 597.1064  -4.40181e+11
 597.3303   3.28953e+12
 597.5542   2.90581e+14
 597.7780   5.03060e+14
 598.0016   5.09928e+14
 598.2253   5.15366e+14
 598.4490   5.02810e+14
 598.6726   4.97765e+14
 598.8961   5.08647e+14
 599.1196   5.15511e+14
 599.3431   5.18582e+14
 599.5665   5.21311e+14
 599.7899   5.13130e+14
 600.0132   5.12998e+14
 600.2365   5.16476e+14
 600.4598   5.13482e+14
 600.6830   5.13664e+14
 600.9061   5.05120e+14
 601.1292   5.13433e+14
 601.3522   5.16183e+14
 601.5753   5.13017e+14
 601.7982   5.15374e+14
 602.0211   5.10858e+14
 602.2440   5.04709e+14
 602.4669   5.09651e+14
 602.6896   5.18520e+14
 602.9124   5.25883e+14
 603.1351   5.32638e+14
 603.3578   5.36698e+14
 603.5804   5.37455e+14
 603.8029   5.38623e+14
 604.0255   5.38258e+14
 604.2479   5.33907e+14
 604.4704   5.35063e+14
 604.6929   5.38659e+14
 604.9151   5.40656e+14
 605.1375   5.42028e+14
 605.3597   5.38291e+14
 605.5820   5.31646e+14
 605.8041   5.32588e+14
 606.0262   5.40954e+14
 606.2483   5.42361e+14
 606.4703   5.34935e+14
 606.6923   5.32997e+14
 606.9143   5.42812e+14
 607.1362   5.49591e+14
 607.3581   5.50268e+14
 607.5799   5.48917e+14
 607.8016   5.39271e+14
 608.0234   5.31485e+14
 608.2451   5.36367e+14
 608.4667   5.36444e+14
 608.6884   5.34926e+14
 608.9099   5.35787e+14
 609.1315   5.34408e+14
 609.3529   5.34271e+14
 609.5744   5.37680e+14
 609.7957   5.40123e+14
 610.0171   5.40566e+14
 610.2383   5.21957e+14
 610.4596   5.12326e+14
 610.6808   5.30896e+14
 610.9020   5.38887e+14
 611.1232   5.40990e+14
 611.3442   5.42858e+14
 611.5653   5.42694e+14
 611.7863   5.40697e+14
 612.0073   5.39884e+14
 612.2281   5.24880e+14
 612.4490   5.22978e+14
 612.6699   5.36425e+14
 612.8906   5.38549e+14
 613.1114   5.38014e+14
 613.3322   5.41413e+14
 613.5528   5.34241e+14
 613.7733   5.08813e+14
 613.9939   5.13152e+14
 614.2145   5.27527e+14
 614.4350   5.33405e+14
 614.6554   5.40307e+14
 614.8759   5.38510e+14
 615.0961   5.37861e+14
 615.3165   5.39047e+14
 615.5367   5.33028e+14
 615.7570   5.29715e+14
 615.9772   5.29763e+14
 616.1974   5.06694e+14
 616.4175   4.95121e+14
 616.6375   5.16062e+14
 616.8575   5.23419e+14
 617.0776   5.15270e+14
 617.2975   5.25580e+14
 617.5175   5.35484e+14
 617.7372   5.35777e+14
 617.9570   5.39357e+14
 618.1769   5.43638e+14
 618.3965   5.47573e+14
 618.6163   5.45332e+14
 618.8360   5.40487e+14
 619.0555   5.33138e+14
 619.2751   5.25992e+14
 619.4947   5.36223e+14
 619.7142   5.47128e+14
 619.9336   5.47218e+14
 620.1530   5.43147e+14
 620.3723   5.47112e+14
 620.5916   5.50544e+14
 620.8110   5.51539e+14
 621.0302   5.51798e+14
 621.2494   5.46500e+14
 621.4686   5.34190e+14
 621.6877   5.31002e+14
 621.9067   5.34302e+14
 622.1258   5.35020e+14
 622.3447   5.41578e+14
 622.5638   5.45681e+14
 622.7826   5.44622e+14
 623.0016   5.33332e+14
 623.2204   5.21691e+14
 623.4391   5.31561e+14
 623.6579   5.42501e+14
 623.8766   5.38206e+14
 624.0953   5.36286e+14
 624.3139   5.35347e+14
 624.5325   5.26125e+14
 624.7510   5.21756e+14
 624.9695   5.34879e+14
 625.1880   5.38395e+14
 625.4065   5.23708e+14
 625.6248   5.18553e+14
 625.8431   5.23202e+14
 626.0615   5.31411e+14
 626.2798   5.42250e+14
 626.4979   5.45001e+14
 626.7161   5.44715e+14
 626.9343   5.47189e+14
 627.1523   5.45373e+14
 627.3704   5.47786e+14
 627.5884   5.52273e+14
 627.8065   5.50541e+14
 628.0245   5.42970e+14
 628.2424   5.40578e+14
 628.4602   5.46760e+14
 628.6780   5.50694e+14
 628.8959   5.51559e+14
 629.1136   5.47840e+14
 629.3314   5.45953e+14
 629.5490   5.48982e+14
 629.7667   5.44698e+14
 629.9843   5.35984e+14
 630.2018   5.25389e+14
 630.4193   5.28700e+14
 630.6368   5.44946e+14
 630.8542   5.50896e+14
 631.0717   5.47057e+14
 631.2890   5.42332e+14
 631.5063   5.32901e+14
 631.7236   5.21841e+14
 631.9409   5.20042e+14
 632.1580   5.29694e+14
 632.3752   5.38532e+14
 632.5924   5.45750e+14
 632.8095   5.47902e+14
 633.0266   5.45035e+14
 633.2435   5.44315e+14
 633.4605   5.40914e+14
 633.6775   5.27658e+14
 633.8944   5.24827e+14
 634.1113   5.34992e+14
 634.3281   5.38109e+14
 634.5449   5.34554e+14
 634.7616   5.38261e+14
 634.9783   5.44638e+14
 635.1949   5.48043e+14
 635.4117   5.44716e+14
 635.6282   5.39033e+14
 635.8448   5.35853e+14
 636.0613   5.30092e+14
 636.2778   5.25718e+14
 636.4943   5.28697e+14
 636.7106   5.38179e+14
 636.9270   5.43926e+14
 637.1433   5.43930e+14
 637.3597   5.46016e+14
 637.5759   5.48426e+14
 637.7922   5.46595e+14
 638.0084   5.42660e+14
 638.2245   5.41683e+14
 638.4406   5.43370e+14
 638.6567   5.44778e+14
 638.8727   5.47695e+14
 639.0887   5.47484e+14
 639.3047   5.36105e+14
 639.5206   5.28495e+14
 639.7366   5.37254e+14
 639.9524   5.28738e+14
 640.1682   5.18615e+14
 640.3840   5.34079e+14
 640.5998   5.40384e+14
 640.8154   5.28944e+14
 641.0311   5.24436e+14
 641.2467   5.24421e+14
 641.4624   5.27945e+14
 641.6780   5.32775e+14
 641.8934   5.32140e+14
 642.1090   5.23590e+14
 642.3245   5.26873e+14
 642.5399   5.40395e+14
 642.7552   5.45088e+14
 642.9706   5.40313e+14
 643.1859   5.28936e+14
 643.4011   5.30634e+14
 643.6164   5.39767e+14
 643.8316   5.32596e+14
 644.0468   5.23152e+14
 644.2620   5.34580e+14
 644.4771   5.44656e+14
 644.6921   5.44353e+14
 644.9071   5.33033e+14
 645.1222   5.21402e+14
 645.3371   5.30211e+14
 645.5519   5.31452e+14
 645.7668   5.27620e+14
 645.9818   5.35982e+14
 646.1966   5.29089e+14
 646.4114   5.17207e+14
 646.6262   5.30690e+14
 646.8409   5.39081e+14
 647.0555   5.32838e+14
 647.2701   5.29909e+14
 647.4848   5.34485e+14
 647.6994   5.37603e+14
 647.9139   5.40929e+14
 648.1285   5.37879e+14
 648.3429   5.31033e+14
 648.5574   5.35196e+14
 648.7718   5.41511e+14
 648.9861   5.41176e+14
 649.2004   5.33045e+14
 649.4148   5.09137e+14
 649.6291   4.87296e+14
 649.8433   4.97556e+14
 650.0575   5.15950e+14
 650.2717   5.30294e+14
 650.4858   5.39586e+14
 650.6999   5.42558e+14
 650.9140   5.42503e+14
 651.1281   5.41952e+14
 651.3420   5.42283e+14
 651.5560   5.38540e+14
 651.7699   5.31074e+14
 651.9838   5.28845e+14
 652.1976   5.35302e+14
 652.4115   5.39708e+14
 652.6254   5.36574e+14
 652.8391   5.31656e+14
 653.0529   5.35223e+14
 653.2665   5.36663e+14
 653.4803   5.33491e+14
 653.6939   5.35178e+14
 653.9075   5.37572e+14
 654.1211   5.37506e+14
 654.3346   5.35913e+14
 654.5481   5.28421e+14
 654.7615   5.20162e+14
 654.9750   5.23784e+14
 655.1885   5.26018e+14
 655.4018   5.18270e+14
 655.6151   5.03818e+14
 655.8285   4.91354e+14
 656.0418   4.65055e+14
 656.2551   3.87577e+14
 656.4682   3.54435e+14
 656.6815   4.29798e+14
 656.8946   4.84504e+14
 657.1077   4.99851e+14
 657.3208   5.10086e+14
 657.5338   5.12857e+14
 657.7469   5.20325e+14
 657.9600   5.29109e+14
 658.1729   5.29487e+14
 658.3859   5.29377e+14
 658.5987   5.29093e+14
 658.8116   5.29121e+14
 659.0244   5.33134e+14
 659.2372   5.25078e+14
 659.4500   5.10929e+14
 659.6627   5.19828e+14
 659.8755   5.28380e+14
 660.0882   5.32545e+14
 660.3008   5.37660e+14
 660.5135   5.35470e+14
 660.7261   5.31908e+14
 660.9387   5.27192e+14
 661.1512   5.29383e+14
 661.3637   5.35723e+14
 661.5762   5.38013e+14
 661.7886   5.38790e+14
 662.0011   5.38897e+14
 662.2134   5.39480e+14
 662.4258   5.38365e+14
 662.6381   5.36135e+14
 662.8504   5.35036e+14
 663.0627   5.34911e+14
 663.2750   5.29256e+14
 663.4872   5.17594e+14
 663.6993   5.22557e+14
 663.9115   5.33318e+14
 664.1236   5.34182e+14
 664.3357   5.29792e+14
 664.5477   5.26368e+14
 664.7598   5.32633e+14
 664.9718   5.37788e+14
 665.1838   5.39422e+14
 665.3957   5.38502e+14
 665.6077   5.37866e+14
 665.8195   5.38434e+14
 666.0314   5.37524e+14
 666.2432   5.31552e+14
 666.4550   5.22828e+14
 666.6668   5.27189e+14
 666.8785   5.33288e+14
 667.0902   5.35574e+14
 667.3020   5.37287e+14
 667.5136   5.37987e+14
 667.7253   5.31793e+14
 667.9369   5.21073e+14
 668.1484   5.28228e+14
 668.3600   5.38365e+14
 668.5715   5.40317e+14
 668.7830   5.40762e+14
 668.9944   5.40288e+14
 669.2059   5.40127e+14
 669.4173   5.39575e+14
 669.6287   5.34317e+14
 669.8401   5.30082e+14
 670.0513   5.33709e+14
 670.2628   5.36400e+14
 670.4740   5.32012e+14
 670.6852   5.30265e+14
 670.8964   5.34391e+14
 671.1076   5.35371e+14
 671.3188   5.32926e+14
 671.5300   5.29145e+14
 671.7410   5.22197e+14
 671.9520   5.18770e+14
 672.1633   5.26564e+14
 672.3742   5.31924e+14
 672.5853   5.34013e+14
 672.7962   5.32209e+14
 673.0071   5.35167e+14
 673.2181   5.37951e+14
 673.4290   5.35566e+14
 673.6398   5.35910e+14
 673.8506   5.34822e+14
 674.0615   5.33330e+14
 674.2723   5.34232e+14
 674.4832   5.33088e+14
 674.6939   5.34132e+14
 674.9045   5.31881e+14
 675.1153   5.26777e+14
 675.3259   5.28253e+14
 675.5366   5.32683e+14
 675.7473   5.34220e+14
 675.9578   5.35797e+14
 676.1684   5.37543e+14
 676.3789   5.38236e+14
 676.5895   5.37135e+14
 676.8000   5.30420e+14
 677.0104   5.28153e+14
 677.2209   5.30119e+14
 677.4313   5.31110e+14
 677.6417   5.36477e+14
 677.8521   5.38315e+14
 678.0624   5.38733e+14
 678.2727   5.35993e+14
 678.4831   5.31218e+14
 678.6933   5.29408e+14
 678.9036   5.33277e+14
 679.1138   5.37284e+14
 679.3240   5.36705e+14
 679.5342   5.33035e+14
 679.7443   5.31741e+14
 679.9545   5.32687e+14
 680.1646   5.34576e+14
 680.3746   5.34964e+14
 680.5847   5.33277e+14
 680.7948   5.32452e+14
 681.0048   5.31821e+14
 681.2148   5.31384e+14
 681.4247   5.33550e+14
 681.6346   5.34301e+14
 681.8446   5.36325e+14
 682.0546   5.33811e+14
 682.2643   5.32533e+14
 682.4743   5.36459e+14
 682.6841   5.37013e+14
 682.8939   5.29780e+14
 683.1037   5.28200e+14
 683.3135   5.33981e+14
 683.5233   5.34311e+14
 683.7330   5.31763e+14
 683.9426   5.24263e+14
 684.1523   5.14005e+14
 684.3619   5.08321e+14
 684.5716   5.17129e+14
 684.7812   5.30111e+14
 684.9908   5.31242e+14
 685.2003   5.31545e+14
 685.4100   5.30395e+14
 685.6195   5.20030e+14
 685.8289   5.15847e+14
 686.0385   5.21918e+14
 686.2479   5.23254e+14
 686.4573   5.25097e+14
 686.6668   5.30006e+14
 686.8762   5.31568e+14
 687.0855   5.32280e+14
 687.2949   5.31050e+14
 687.5043   5.29993e+14
 687.7136   5.28725e+14
 687.9228   5.27371e+14
 688.1321   5.24536e+14
 688.3414   5.17866e+14
 688.5506   5.20394e+14
 688.7599   5.25300e+14
 688.9689   5.28785e+14
 689.1782   5.31770e+14
 689.3874   5.31042e+14
 689.5965   5.27182e+14
 689.8056   5.26077e+14
 690.0147   5.27733e+14
 690.2238   5.28081e+14
 690.4328   5.26836e+14
 690.6419   5.24604e+14
 690.8509   5.25012e+14
 691.0599   5.28047e+14
 691.2689   5.26867e+14
 691.4779   5.20388e+14
 691.6868   5.13234e+14
 691.8958   5.16320e+14
 692.1047   5.23306e+14
 692.3135   5.26986e+14
 692.5224   5.21023e+14
 692.7312   5.17479e+14
 692.9401   5.24142e+14
 693.1489   5.26809e+14
 693.3577   5.23585e+14
 693.5664   5.23357e+14
 693.7752   5.26251e+14
 693.9839   5.28211e+14
 694.1927   5.29282e+14
 694.4014   5.27459e+14
 694.6100   5.19048e+14
 694.8187   5.19554e+14
 695.0274   5.25436e+14
 695.2360   5.21784e+14
 695.4447   5.20015e+14
 695.6533   5.24389e+14
 695.8618   5.27174e+14
 696.0704   5.27369e+14
 696.2789   5.26545e+14
 696.4875   5.27061e+14
 696.6960   5.23937e+14
 696.9045   5.25775e+14
 697.1130   5.27781e+14
 697.3215   5.26483e+14
 697.5299   5.23489e+14
 697.7384   5.12348e+14
 697.9467   4.98357e+14
 698.1552   5.04567e+14
 698.3636   5.21322e+14
 698.5719   5.26591e+14
 698.7803   5.25604e+14
 698.9886   5.23186e+14
 699.1969   5.24357e+14
 699.4052   5.25725e+14
 699.6135   5.25074e+14
 699.8218   5.25439e+14
 700.0300   5.17212e+14
 700.2383   5.13650e+14
 700.4465   5.13581e+14
 700.6548   5.07328e+14
 700.8630   5.09779e+14
 701.0712   5.18838e+14
 701.2794   5.17276e+14
 701.4875   5.14901e+14
 701.6956   5.04571e+14
 701.9037   5.00530e+14
 702.1119   5.17087e+14
 702.3199   5.16832e+14
 702.5281   5.05017e+14
 702.7361   5.10415e+14
 702.9442   5.18753e+14
 703.1522   5.19358e+14
 703.3602   5.18637e+14
 703.5683   5.13757e+14
 703.7762   5.12317e+14
 703.9843   5.12963e+14
 704.1923   5.18694e+14
 704.4002   5.25927e+14
 704.6082   5.24042e+14
 704.8160   5.24638e+14
 705.0240   5.26886e+14
 705.2319   5.25425e+14
 705.4398   5.19999e+14
 705.6477   5.18057e+14
 705.8556   5.19918e+14
 706.0634   5.19342e+14
 706.2712   5.17148e+14
 706.4791   5.20438e+14
 706.6870   5.21713e+14
 706.8948   5.14648e+14
 707.1026   5.13192e+14
 707.3104   5.19623e+14
 707.5181   5.22172e+14
 707.7259   5.24415e+14
 707.9337   5.24442e+14
 708.1414   5.24801e+14
 708.3491   5.20472e+14
 708.5569   5.08259e+14
 708.7646   5.07723e+14
 708.9722   5.14977e+14
 709.1800   5.12433e+14
 709.3875   5.13045e+14
 709.5953   5.15864e+14
 709.8029   5.16278e+14
 710.0105   5.19059e+14
 710.2182   5.21318e+14
 710.4258   5.21639e+14
 710.6334   5.22436e+14
 710.8411   5.19620e+14
 711.0486   5.17164e+14
 711.2562   5.12327e+14
 711.4638   5.11239e+14
 711.6713   5.15308e+14
 711.8788   5.16329e+14
 712.0864   5.15223e+14
 712.2940   5.07807e+14
 712.5015   5.09106e+14
 712.7089   5.17986e+14
 712.9164   5.16833e+14
 713.1240   5.09160e+14
 713.3314   5.04181e+14
 713.5389   5.12368e+14
 713.7463   5.19527e+14
 713.9538   5.20820e+14
 714.1613   5.19939e+14
 714.3687   5.16694e+14
 714.5762   5.13825e+14
 714.7835   5.08103e+14
 714.9910   4.99185e+14
 715.1984   5.06560e+14
 715.4058   5.16563e+14
 715.6132   5.16614e+14
 715.8206   5.15578e+14
 716.0280   5.18456e+14
 716.2353   5.17468e+14
 716.4426   5.07901e+14
 716.6500   4.91255e+14
 716.8574   5.02531e+14
 717.0648   5.19256e+14
 717.2720   5.21108e+14
 717.4793   5.20901e+14
 717.6867   5.14978e+14
 717.8940   5.11938e+14
 718.1014   5.11488e+14
 718.3085   5.01986e+14
 718.5159   5.06724e+14
 718.7231   5.03350e+14
 718.9305   4.92040e+14
 719.1377   5.00765e+14
 719.3450   5.03833e+14
 719.5522   5.00380e+14
 719.7595   5.05008e+14
 719.9668   5.10623e+14
 720.1740   5.12595e+14
 720.3813   5.05737e+14
 720.5884   5.10569e+14
 720.7957   4.99049e+14
 721.0029   4.91769e+14
 721.2101   5.08095e+14
 721.4173   5.13892e+14
 721.6245   5.11051e+14
 721.8318   5.11117e+14
 722.0390   5.08326e+14
 722.2462   5.04689e+14
 722.4534   5.01870e+14
 722.6605   5.03395e+14
 722.8677   5.08887e+14
 723.0749   5.12686e+14
 723.2821   5.16732e+14
 723.4892   5.17475e+14
 723.6964   5.11649e+14
 723.9035   5.12395e+14
 724.1107   5.11996e+14
 724.3179   5.12583e+14
 724.5250   5.12470e+14
 724.7322   5.11953e+14
 724.9393   5.16222e+14
 725.1465   5.10671e+14
 725.3536   5.06952e+14
 725.5607   5.11476e+14
 725.7678   5.13708e+14
 725.9750   5.16985e+14
 726.1821   5.09164e+14
 726.3892   5.03140e+14
 726.5964   5.11301e+14
 726.8035   5.15395e+14
 727.0107   5.15194e+14
 727.2177   5.15264e+14
 727.4248   5.14147e+14
 727.6320   5.10582e+14
 727.8391   5.10575e+14
 728.0461   5.13424e+14
 728.2533   5.09006e+14
 728.4604   4.98320e+14
 728.6674   4.99931e+14
 728.8746   5.02031e+14
 729.0817   4.90661e+14
 729.2889   4.88694e+14
 729.4959   4.95141e+14
 729.7030   5.08348e+14
 729.9102   5.16565e+14
 730.1172   5.13977e+14
 730.3243   5.12072e+14
 730.5314   5.15123e+14
 730.7385   5.11122e+14
 730.9456   5.03602e+14
 731.1527   5.01184e+14
 731.3598   5.04863e+14
 731.5670   5.13731e+14
 731.7740   5.15210e+14
 731.9811   5.13544e+14
 732.1882   5.09945e+14
 732.3953   5.11115e+14
 732.6025   5.07795e+14
 732.8095   4.98977e+14
 733.0167   5.04912e+14
 733.2237   5.07804e+14
 733.4308   5.09686e+14
 733.6380   5.13117e+14
 733.8450   5.16428e+14
 734.0521   5.17453e+14
 734.2593   5.17116e+14
 734.4664   5.12825e+14
 734.6735   5.10897e+14
 734.8806   5.13670e+14
 735.0878   5.11919e+14
 735.2949   5.05116e+14
 735.5020   5.04190e+14
 735.7092   5.01550e+14
 735.9163   5.04291e+14
 736.1235   5.10697e+14
 736.3306   5.05655e+14
 736.5378   5.03244e+14
 736.7449   5.08079e+14
 736.9520   5.11395e+14
 737.1592   5.12192e+14
 737.3664   5.11440e+14
 737.5735   5.07259e+14
 737.7806   5.05877e+14
 737.9879   5.11668e+14
 738.1950   5.12516e+14
 738.4022   5.07141e+14
 738.6094   4.99172e+14
 738.8166   4.85112e+14
 739.0237   4.79594e+14
 739.2310   4.93387e+14
 739.4382   5.00130e+14
 739.6453   5.00572e+14
 739.8527   5.08425e+14
 740.0598   5.04747e+14
 740.2670   4.97663e+14
 740.4743   5.03464e+14
 740.6815   5.01850e+14
 740.8887   4.95989e+14
 741.0960   4.86679e+14
 741.3032   4.87503e+14
 741.5105   4.93922e+14
 741.7178   4.88172e+14
 741.9250   4.93029e+14
 742.1322   5.00196e+14
 742.3395   4.90264e+14
 742.5468   4.86184e+14
 742.7542   5.02083e+14
 742.9614   5.10614e+14
 743.1687   5.06776e+14
 743.3760   5.04920e+14
 743.5833   5.07747e+14
 743.7906   5.08239e+14
 743.9980   5.08041e+14
 744.2053   5.02475e+14
 744.4127   4.99167e+14
 744.6201   4.94182e+14
 744.8274   4.89367e+14
 745.0348   4.99049e+14
 745.2422   5.07330e+14
 745.4496   5.09984e+14
 745.6570   5.10090e+14
 745.8644   5.10423e+14
 746.0718   5.09411e+14
 746.2793   4.98493e+14
 746.4867   4.94219e+14
 746.6942   5.05036e+14
 746.9016   5.10441e+14
 747.1090   5.10674e+14
 747.3165   5.08104e+14
 747.5240   5.05291e+14
 747.7315   5.03632e+14
 747.9390   5.04731e+14
 748.1464   5.04945e+14
 748.3540   5.02755e+14
 748.5615   5.03752e+14
 748.7691   5.06410e+14
 748.9766   5.06864e+14
 749.1841   5.02490e+14
 749.3917   4.95668e+14
 749.5993   4.84722e+14
 749.8069   4.87453e+14
 750.0145   5.01012e+14
 750.2222   5.04942e+14
 750.4297   5.05394e+14
 750.6375   5.01777e+14
 750.8450   4.96163e+14
 751.0527   4.92840e+14
 751.2604   4.82680e+14
 751.4680   4.88815e+14
 751.6757   5.01644e+14
 751.8834   5.04579e+14
 752.0911   5.05765e+14
 752.2989   4.99671e+14
 752.5066   4.90819e+14
 752.7144   4.92065e+14
 752.9221   5.00099e+14
 753.1299   4.98358e+14
 753.3377   4.91694e+14
 753.5456   4.97320e+14
 753.7534   5.04323e+14
 753.9612   5.05063e+14
 754.1691   5.03921e+14
 754.3770   5.02732e+14
 754.5848   5.01469e+14
 754.7927   4.96859e+14
 755.0005   4.97270e+14
 755.2086   5.01613e+14
 755.4164   5.01662e+14
 755.6244   4.93590e+14
 755.8324   4.90919e+14
 756.0403   4.94557e+14
 756.2483   4.97200e+14
 756.4562   5.00148e+14
 756.6643   5.00811e+14
 756.8723   4.96565e+14
 757.0804   4.91404e+14
 757.2885   4.95483e+14
 757.4965   4.94328e+14
 757.7047   4.94488e+14
 757.9127   5.01004e+14
 758.1209   5.02190e+14
 758.3290   4.98958e+14
 758.5372   4.88816e+14
 758.7453   4.80598e+14
 758.9534   4.86215e+14
 759.1617   4.97423e+14
 759.3699   5.01692e+14
 759.5782   5.02266e+14
 759.7865   5.01094e+14
 759.9947   4.99960e+14
 760.2031   4.97246e+14
 760.4113   4.95702e+14
 760.6196   4.96206e+14
 760.8280   4.96725e+14
 761.0364   4.99056e+14
 761.2447   4.99410e+14
 761.4532   5.00133e+14
 761.6616   4.96150e+14
 761.8701   4.84271e+14
 762.0785   4.78275e+14
 762.2870   4.85678e+14
 762.4954   4.96459e+14
 762.7039   5.00577e+14
 762.9125   5.01044e+14
 763.1210   5.01512e+14
 763.3296   5.02817e+14
 763.5382   5.02993e+14
 763.7468   5.02648e+14
 763.9554   5.02582e+14
 764.1639   5.00140e+14
 764.3726   5.00646e+14
 764.5813   5.02996e+14
 764.7901   5.03031e+14
 764.9988   5.01849e+14
 765.2076   5.00034e+14
 765.4163   4.96918e+14
 765.6251   4.91123e+14
 765.8338   4.83919e+14
 766.0427   4.72976e+14
 766.2515   4.72842e+14
 766.4604   4.74361e+14
 766.6693   4.63944e+14
 766.8782   4.77930e+14
 767.0872   4.93731e+14
 767.2961   4.96128e+14
 767.5051   5.01476e+14
 767.7141   5.03627e+14
 767.9231   5.02314e+14
 768.1322   4.95436e+14
 768.3412   4.93868e+14
 768.5504   5.01231e+14
 768.7594   5.03192e+14
 768.9685   4.99108e+14
 769.1777   4.91323e+14
 769.3868   4.86096e+14
 769.5960   4.93067e+14
 769.8053   4.97700e+14
 770.0145   4.88193e+14
 770.2238   4.87101e+14
 770.4331   5.00351e+14
 770.6425   5.04580e+14
 770.8517   5.04520e+14
 771.0612   5.00590e+14
 771.2705   4.92036e+14
 771.4799   4.86359e+14
 771.6895   4.83211e+14
 771.8989   4.91348e+14
 772.1084   4.99604e+14
 772.3179   4.98940e+14
 772.5273   4.96444e+14
 772.7370   4.97335e+14
 772.9465   4.95501e+14
 773.1561   4.97830e+14
 773.3658   5.02974e+14
 773.5754   5.02613e+14
 773.7852   5.04583e+14
 773.9949   5.07137e+14
 774.2047   5.05806e+14
 774.4144   4.96584e+14
 774.6242   4.93407e+14
 774.8340   4.95325e+14
 775.0438   4.85134e+14
 775.2538   4.87113e+14
 775.4636   5.01406e+14
 775.6736   5.07531e+14
 775.8835   5.09298e+14
 776.0936   5.08394e+14
 776.3036   5.07146e+14
 776.5136   5.10035e+14
 776.7237   5.12601e+14
 776.9338   5.13938e+14
 777.1439   5.13894e+14
 777.3541   5.07628e+14
 777.5643   5.01064e+14
 777.7745   5.02711e+14
 777.9847   5.09387e+14
 778.1951   5.05728e+14
 778.4052   5.04124e+14
 778.6155   5.14950e+14
 778.8260   5.19779e+14
 779.0363   5.14511e+14
 779.2467   5.13475e+14
 779.4572   5.21453e+14
 779.6677   5.24854e+14
 779.8782   5.20041e+14
 780.0887   5.12815e+14
 780.2993   5.14697e+14
 780.5098   5.23566e+14
 780.7205   5.28952e+14
 780.9312   5.26709e+14
 781.1418   5.23395e+14
 781.3526   5.23828e+14
 781.5634   5.29490e+14
 781.7741   5.36866e+14
 781.9849   5.40265e+14
 782.1957   5.41832e+14
 782.4066   5.43061e+14
 782.6176   5.44889e+14
 782.8285   5.45801e+14
 783.0395   5.46737e+14
 783.2504   5.43944e+14
 783.4614   5.32514e+14
 783.6725   5.30677e+14
 783.8837   5.36923e+14
 784.0947   5.46845e+14
 784.3059   5.54968e+14
 784.5172   5.55497e+14
 784.7284   5.56115e+14
 784.9396   5.58521e+14
 785.1510   5.56058e+14
 785.3622   5.53792e+14
 785.5737   5.59008e+14
 785.7851   5.60614e+14
 785.9965   5.61902e+14
 786.2080   5.64653e+14
 786.4194   5.64623e+14
 786.6310   5.64703e+14
 786.8427   5.65837e+14
 787.0542   5.65429e+14
 787.2659   5.62854e+14
 787.4775   5.62611e+14
 787.6893   5.62871e+14
 787.9009   5.60401e+14
 788.1128   5.58055e+14
 788.3246   5.56746e+14
 788.5364   5.56078e+14
 788.7484   5.57842e+14
 788.9603   5.59662e+14
 789.1722   5.58079e+14
 789.3842   5.55952e+14
 789.5963   5.53245e+14
 789.8083   5.49327e+14
 790.0205   5.46314e+14
 790.2326   5.46393e+14
 790.4448   5.46412e+14
 790.6570   5.45459e+14
 790.8693   5.43909e+14
 791.0816   5.41206e+14
 791.2939   5.37515e+14
 791.5063   5.31615e+14
 791.7187   5.27891e+14
 791.9312   5.27334e+14
 792.1437   5.20608e+14
 792.3562   5.22820e+14
 792.5687   5.28547e+14
 792.7814   5.26239e+14
 792.9941   5.23910e+14
 793.2067   5.22497e+14
 793.4195   5.11226e+14
 793.6323   5.03662e+14
 793.8450   5.09385e+14
 794.0579   5.06290e+14
 794.2708   5.09079e+14
 794.4837   5.14729e+14
 794.6967   5.04329e+14
 794.9096   4.94404e+14
 795.1227   5.04784e+14
 795.3358   5.20005e+14
 795.5489   5.21785e+14
 795.7621   5.21119e+14
 795.9753   5.19228e+14
 796.1886   5.19027e+14
 796.4019   5.18453e+14
 796.6152   5.18213e+14
 796.8286   5.16858e+14
 797.0419   5.15872e+14
 797.2554   5.13155e+14
 797.4689   5.10394e+14
 797.6825   5.10021e+14
 797.8961   5.09458e+14
 798.1096   5.06684e+14
 798.3234   5.03755e+14
 798.5371   5.02144e+14
 798.7508   5.01285e+14
 798.9647   4.97295e+14
 799.1785   4.93548e+14
 799.3924   4.91757e+14
 799.6064   4.89559e+14
 799.8203   4.82259e+14
 800.0342   4.76916e+14
 800.2484   4.67749e+14
 800.4625   4.64639e+14
 800.6766   4.71948e+14
 800.8909   4.74975e+14
 801.1050   4.72699e+14
 801.3194   4.70213e+14
 801.5337   4.69288e+14
 801.7480   4.68535e+14
 801.9625   4.67597e+14
 802.1770   4.67640e+14
 802.3915   4.66538e+14
 802.6061   4.66695e+14
 802.8207   4.64536e+14
 803.0353   4.58568e+14
 803.2499   4.50646e+14
 803.4648   4.55306e+14
 803.6796   4.64040e+14
 803.8944   4.64683e+14
 804.1093   4.63400e+14
 804.3242   4.65917e+14
 804.5392   4.65997e+14
 804.7543   4.65251e+14
 804.9693   4.56571e+14
 805.1844   4.46578e+14
 805.3995   4.50651e+14
 805.6147   4.61419e+14
 805.8300   4.65243e+14
 806.0453   4.65837e+14
 806.2607   4.66627e+14
 806.4762   4.73005e+14
 806.6917   4.74196e+14
 806.9072   4.75491e+14
 807.1227   4.75811e+14
 807.3384   4.76049e+14
 807.5540   4.72626e+14
 807.7697   4.71761e+14
 807.9855   4.72861e+14
 808.2012   4.77395e+14
 808.4172   4.80406e+14
 808.6331   4.79254e+14
 808.8491   4.77623e+14
 809.0651   4.72999e+14
 809.2811   4.76726e+14
 809.4972   4.84869e+14
 809.7134   4.79723e+14
 809.9296   4.73772e+14
 810.1459   2.57268e+14
 810.3622   6.09368e+12
 810.5786  -4.16433e+12
 810.7949  -3.48257e+12
 811.0115  -4.05115e+12
 811.2281  -2.85750e+12
 811.4446  -3.03338e+12
 811.6613  -1.96651e+12
 811.8779  -2.10451e+12
 812.0947  -1.32666e+12
 812.3115  -1.41178e+12
 773.1949  -1.72009e+12
 773.4975  -1.96209e+12
 773.7999  -1.85036e+12
 774.1025  -2.57738e+12
 774.4047  -2.59409e+12
 774.7069  -2.87702e+12
 775.0091  -2.42936e+12
 775.3111  -2.46320e+12
 775.6131  -2.32249e+12
 775.9149   3.70115e+12
 776.2167   2.21322e+14
 776.5185   3.89933e+14
 776.8201   3.90434e+14
 777.1216   3.86815e+14
 777.4231   3.81702e+14
 777.7245   3.82590e+14
 778.0259   3.82536e+14
 778.3270   3.84041e+14
 778.6282   3.88763e+14
 778.9293   3.87547e+14
 779.2302   3.89355e+14
 779.5311   3.91233e+14
 779.8320   3.87460e+14
 780.1326   3.86480e+14
 780.4333   3.91700e+14
 780.7339   3.92422e+14
 781.0343   3.91336e+14
 781.3347   3.93281e+14
 781.6351   3.98691e+14
 781.9353   4.01905e+14
 782.2355   4.03701e+14
 782.5355   4.04665e+14
 782.8355   4.05970e+14
 783.1354   4.02067e+14
 783.4352   3.97449e+14
 783.7350   4.00896e+14
 784.0347   4.09703e+14
 784.3342   4.14256e+14
 784.6338   4.16814e+14
 784.9332   4.17099e+14
 785.2326   4.18237e+14
 785.5318   4.20672e+14
 785.8311   4.24685e+14
 786.1302   4.27466e+14
 786.4293   4.30358e+14
 786.7282   4.32180e+14
 787.0270   4.33566e+14
 787.3259   4.34327e+14
 787.6245   4.36128e+14
 787.9232   4.36023e+14
 788.2219   4.37595e+14
 788.5203   4.40316e+14
 788.8186   4.44145e+14
 789.1170   4.45475e+14
 789.4153   4.45753e+14
 789.7134   4.45525e+14
 790.0115   4.47301e+14
 790.3096   4.49119e+14
 790.6075   4.50767e+14
 790.9053   4.50128e+14
 791.2031   4.48343e+14
 791.5009   4.45724e+14
 791.7985   4.44593e+14
 792.0961   4.45671e+14
 792.3936   4.49667e+14
 792.6910   4.50305e+14
 792.9883   4.47289e+14
 793.2856   4.40841e+14
 793.5827   4.39044e+14
 793.8798   4.40888e+14
 794.1768   4.43669e+14
 794.4739   4.40548e+14
 794.7707   4.39967e+14
 795.0675   4.50613e+14
 795.3643   4.58744e+14
 795.6608   4.60092e+14
 795.9575   4.61493e+14
 796.2540   4.63338e+14
 796.5505   4.65172e+14
 796.8468   4.65946e+14
 797.1431   4.66474e+14
 797.4393   4.68034e+14
 797.7354   4.70373e+14
 798.0314   4.71064e+14
 798.3274   4.73150e+14
 798.6234   4.74163e+14
 798.9193   4.74677e+14
 799.2150   4.75407e+14
 799.5107   4.73790e+14
 799.8063   4.69036e+14
 800.1019   4.67721e+14
 800.3973   4.73362e+14
 800.6927   4.79573e+14
 800.9881   4.80802e+14
 801.2833   4.82321e+14
 801.5786   4.83282e+14
 801.8736   4.85037e+14
 802.1687   4.85853e+14
 802.4636   4.83540e+14
 802.7585   4.78289e+14
 803.0534   4.76970e+14
 803.3481   4.81921e+14
 803.6428   4.85578e+14
 803.9375   4.86148e+14
 804.2320   4.86006e+14
 804.5265   4.78657e+14
 804.8209   4.70371e+14
 805.1152   4.70862e+14
 805.4095   4.77816e+14
 805.7037   4.81082e+14
 805.9978   4.83414e+14
 806.2919   4.84796e+14
 806.5858   4.84994e+14
 806.8798   4.82322e+14
 807.1737   4.78909e+14
 807.4673   4.76315e+14
 807.7610   4.77526e+14
 808.0548   4.78342e+14
 808.3483   4.75792e+14
 808.6418   4.71872e+14
 808.9352   4.72902e+14
 809.2286   4.72884e+14
 809.5220   4.69206e+14
 809.8152   4.66799e+14
 810.1083   4.68045e+14
 810.4014   4.72785e+14
 810.6945   4.76305e+14
 810.9874   4.76198e+14
 811.2803   4.75951e+14
 811.5732   4.75615e+14
 811.8659   4.75616e+14
 812.1586   4.75334e+14
 812.4512   4.75956e+14
 812.7437   4.75149e+14
 813.0362   4.74801e+14
 813.3286   4.74070e+14
 813.6210   4.74598e+14
 813.9133   4.74372e+14
 814.2055   4.74213e+14
 814.4976   4.72810e+14
 814.7898   4.72561e+14
 815.0817   4.71725e+14
 815.3737   4.72552e+14
 815.6657   4.72917e+14
 815.9575   4.73894e+14
 816.2493   4.72797e+14
 816.5410   4.72659e+14
 816.8326   4.72314e+14
 817.1242   4.71941e+14
 817.4157   4.70828e+14
 817.7072   4.71795e+14
 817.9985   4.69356e+14
 818.2898   4.61401e+14
 818.5811   4.53905e+14
 818.8723   4.59468e+14
 819.1635   4.65214e+14
 819.4545   4.58007e+14
 819.7455   4.48177e+14
 820.0363   4.53388e+14
 820.3272   4.62121e+14
 820.6181   4.65205e+14
 820.9088   4.64496e+14
 821.1995   4.60448e+14
 821.4901   4.55382e+14
 821.7806   4.56469e+14
 822.0711   4.55943e+14
 822.3616   4.56600e+14
 822.6520   4.65391e+14
 822.9423   4.69908e+14
 823.2325   4.66012e+14
 823.5226   4.63879e+14
 823.8129   4.65520e+14
 824.1028   4.67194e+14
 824.3928   4.68171e+14
 824.6828   4.67384e+14
 824.9727   4.63096e+14
 825.2625   4.64009e+14
 825.5523   4.67099e+14
 825.8420   4.67710e+14
 826.1316   4.68135e+14
 826.4211   4.69004e+14
 826.7107   4.67801e+14
 827.0001   4.67558e+14
 827.2895   4.67651e+14
 827.5789   4.66132e+14
 827.8681   4.65477e+14
 828.1574   4.68394e+14
 828.4465   4.68915e+14
 828.7356   4.67750e+14
 829.0246   4.65696e+14
 829.3136   4.63874e+14
 829.6025   4.62639e+14
 829.8914   4.64695e+14
 830.1802   4.66004e+14
 830.4689   4.65003e+14
 830.7576   4.61578e+14
 831.0463   4.59710e+14
 831.3348   4.60423e+14
 831.6234   4.64830e+14
 831.9119   4.66864e+14
 832.2003   4.66178e+14
 832.4886   4.62165e+14
 832.7769   4.54804e+14
 833.0651   4.50871e+14
 833.3532   4.50030e+14
 833.6414   4.49197e+14
 833.9294   4.52007e+14
 834.2174   4.55173e+14
 834.5054   4.56771e+14
 834.7933   4.53480e+14
 835.0811   4.57406e+14
 835.3689   4.64653e+14
 835.6566   4.66647e+14
 835.9442   4.64465e+14
 836.2319   4.61726e+14
 836.5194   4.60114e+14
 836.8069   4.60942e+14
 837.0944   4.63487e+14
 837.3817   4.64941e+14
 837.6691   4.64484e+14
 837.9563   4.64420e+14
 838.2435   4.63375e+14
 838.5308   4.60597e+14
 838.8178   4.53397e+14
 839.1049   4.52982e+14
 839.3918   4.61120e+14
 839.6789   4.64935e+14
 839.9657   4.64302e+14
 840.2526   4.63882e+14
 840.5393   4.63914e+14
 840.8262   4.65316e+14
 841.1128   4.64907e+14
 841.3995   4.62600e+14
 841.6860   4.61810e+14
 841.9725   4.62846e+14
 842.2590   4.61207e+14
 842.5455   4.58386e+14
 842.8318   4.57637e+14
 843.1182   4.62211e+14
 843.4044   4.61306e+14
 843.6906   4.53987e+14
 843.9767   4.51693e+14
 844.2628   4.55431e+14
 844.5490   4.56026e+14
 844.8350   4.54559e+14
 845.1209   4.58359e+14
 845.4068   4.63013e+14
 845.6926   4.63976e+14
 845.9784   4.64242e+14
 846.2643   4.64187e+14
 846.5499   4.62368e+14
 846.8356   4.54894e+14
 847.1212   4.50788e+14
 847.4067   4.55821e+14
 847.6922   4.61511e+14
 847.9777   4.62886e+14
 848.2630   4.60722e+14
 848.5484   4.60077e+14
 848.8336   4.61597e+14
 849.1190   4.60072e+14
 849.4042   4.54500e+14
 849.6893   4.25938e+14
 849.9744   3.85732e+14
 850.2594   3.99966e+14
 850.5445   4.39423e+14
 850.8294   4.56681e+14
 851.1143   4.60068e+14
 851.3992   4.52675e+14
 851.6840   4.44633e+14
 851.9687   4.49437e+14
 852.2534   4.57496e+14
 852.5381   4.56653e+14
 852.8228   4.51042e+14
 853.1074   4.49804e+14
 853.3918   4.48004e+14
 853.6764   4.33364e+14
 853.9608   3.96966e+14
 854.2452   3.31073e+14
 854.5294   3.14955e+14
 854.8138   3.76982e+14
 855.0981   4.27340e+14
 855.3821   4.45282e+14
 855.6664   4.47192e+14
 855.9505   4.45350e+14
 856.2346   4.51747e+14
 856.5186   4.56332e+14
 856.8026   4.58514e+14
 857.0865   4.57482e+14
 857.3704   4.55831e+14
 857.6541   4.56400e+14
 857.9379   4.57723e+14
 858.2217   4.54811e+14
 858.5054   4.51009e+14
 858.7890   4.53041e+14
 859.0726   4.55458e+14
 859.3562   4.52610e+14
 859.6396   4.48182e+14
 859.9232   4.45189e+14
 860.2065   4.48553e+14
 860.4899   4.52995e+14
 860.7734   4.53001e+14
 861.0566   4.49782e+14
 861.3399   4.45165e+14
 861.6231   4.45603e+14
 861.9063   4.50627e+14
 862.1894   4.50683e+14
 862.4725   4.50827e+14
 862.7556   4.54571e+14
 863.0385   4.56069e+14
 863.3215   4.53998e+14
 863.6043   4.52878e+14
 863.8872   4.53574e+14
 864.1701   4.54170e+14
 864.4529   4.52930e+14
 864.7357   4.47444e+14
 865.0184   4.38042e+14
 865.3010   4.38664e+14
 865.5836   4.39325e+14
 865.8661   4.23564e+14
 866.1487   3.69479e+14
 866.4312   3.21028e+14
 866.7137   3.61272e+14
 866.9962   4.17628e+14
 867.2785   4.33580e+14
 867.5608   4.34216e+14
 867.8431   4.36300e+14
 868.1253   4.39881e+14
 868.4076   4.42178e+14
 868.6898   4.40743e+14
 868.9719   4.26626e+14
 869.2540   4.30789e+14
 869.5360   4.44273e+14
 869.8181   4.46214e+14
 870.1000   4.43005e+14
 870.3820   4.43904e+14
 870.6639   4.46874e+14
 870.9457   4.45125e+14
 871.2275   4.36945e+14
 871.5093   4.34917e+14
 871.7911   4.38678e+14
 872.0728   4.41778e+14
 872.3545   4.46783e+14
 872.6361   4.46882e+14
 872.9177   4.38737e+14
 873.1992   4.37914e+14
 873.4807   4.39842e+14
 873.7622   4.31371e+14
 874.0436   4.32851e+14
 874.3250   4.35705e+14
 874.6064   4.36214e+14
 874.8878   4.39202e+14
 875.1689   4.32511e+14
 875.4503   4.29261e+14
 875.7314   4.32316e+14
 876.0127   4.36343e+14
 876.2938   4.38800e+14
 876.5750   4.35586e+14
 876.8560   4.37700e+14
 877.1370   4.41180e+14
 877.4180   4.32393e+14
 877.6990   4.33253e+14
 877.9800   4.41895e+14
 878.2607   4.43151e+14
 878.5417   4.42329e+14
 878.8225   4.42986e+14
 879.1033   4.35910e+14
 879.3840   4.27131e+14
 879.6648   4.30574e+14
 879.9455   4.39627e+14
 880.2261   4.42490e+14
 880.5068   4.31717e+14
 880.7874   4.03557e+14
 881.0679   4.08515e+14
 881.3483   4.35863e+14
 881.6289   4.43559e+14
 881.9094   4.42997e+14
 882.1898   4.41922e+14
 882.4702   4.32317e+14
 882.7505   4.30598e+14
 883.0308   4.40284e+14
 883.3111   4.43957e+14
 883.5914   4.42374e+14
 883.8716   4.36922e+14
 884.1518   4.35158e+14
 884.4319   4.40799e+14
 884.7121   4.40153e+14
 884.9922   4.39847e+14
 885.2722   4.42214e+14
 885.5523   4.42269e+14
 885.8322   4.40415e+14
 886.1122   4.36048e+14
 886.3922   4.26764e+14
 886.6721   4.21610e+14
 886.9519   4.22180e+14
 887.2318   4.33277e+14
 887.5116   4.40082e+14
 887.7914   4.38530e+14
 888.0711   4.39347e+14
 888.3508   4.41404e+14
 888.6305   4.41573e+14
 888.9102   4.43505e+14
 889.1898   4.41155e+14
 889.4694   4.37676e+14
 889.7490   4.39976e+14
 890.0285   4.41219e+14
 890.3080   4.40881e+14
 890.5874   4.41911e+14
 890.8669   4.41714e+14
 891.1464   4.39411e+14
 891.4258   4.34658e+14
 891.7051   4.38270e+14
 891.9844   4.39129e+14
 892.2638   4.36146e+14
 892.5430   4.32332e+14
 892.8223   4.27325e+14
 893.1015   4.29802e+14
 893.3807   4.38603e+14
 893.6599   4.42075e+14
 893.9390   4.42673e+14
 894.2181   4.39845e+14
 894.4972   4.33639e+14
 894.7762   4.28451e+14
 895.0553   4.31697e+14
 895.3344   4.37626e+14
 895.6132   4.41270e+14
 895.8922   4.41280e+14
 896.1711   4.40838e+14
 896.4501   4.39461e+14
 896.7289   4.35696e+14
 897.0078   4.33997e+14
 897.2866   4.37714e+14
 897.5654   4.35200e+14
 897.8441   4.32099e+14
 898.1229   4.35376e+14
 898.4016   4.37124e+14
 898.6803   4.34895e+14
 898.9590   4.35633e+14
 899.2376   4.35669e+14
 899.5162   4.35505e+14
 899.7949   4.32142e+14
 900.0734   4.23993e+14
 900.3520   4.25459e+14
 900.6305   4.30444e+14
 900.9089   4.20200e+14
 901.1874   4.08430e+14
 901.4659   4.06306e+14
 901.7443   4.10348e+14
 902.0227   4.15680e+14
 902.3010   4.17792e+14
 902.5794   4.19457e+14
 902.8577   4.27647e+14
 903.1360   4.31680e+14
 903.4142   4.33142e+14
 903.6926   4.32765e+14
 903.9708   4.33284e+14
 904.2491   4.34839e+14
 904.5273   4.35824e+14
 904.8054   4.35134e+14
 905.0835   4.33289e+14
 905.3616   4.31811e+14
 905.6398   4.34287e+14
 905.9178   4.34225e+14
 906.1959   4.21517e+14
 906.4739   4.15097e+14
 906.7519   4.29018e+14
 907.0300   4.33663e+14
 907.3079   4.33354e+14
 907.5859   4.34679e+14
 907.8638   4.27038e+14
 908.1418   4.18550e+14
 908.4196   4.27080e+14
 908.6975   4.29054e+14
 908.9753   4.13810e+14
 909.2532   4.13011e+14
 909.5310   4.17873e+14
 909.8087   4.18941e+14
 910.0866   4.26664e+14
 910.3644   4.28368e+14
 910.6420   4.31376e+14
 910.9197   4.32105e+14
 911.1974   4.26436e+14
 911.4752   4.23253e+14
 911.7528   4.25759e+14
 912.0305   4.23932e+14
 912.3080   4.30080e+14
 912.5856   4.35327e+14
 912.8632   4.35639e+14
 913.1408   4.34438e+14
 913.4183   4.35271e+14
 913.6959   4.35265e+14
 913.9733   4.34290e+14
 914.2509   4.32520e+14
 914.5283   4.30671e+14
 914.8058   4.25934e+14
 915.0832   4.27816e+14
 915.3607   4.32939e+14
 915.6381   4.32424e+14
 915.9154   4.31023e+14
 916.1928   4.32957e+14
 916.4702   4.30585e+14
 916.7475   4.29199e+14
 917.0248   4.29573e+14
 917.3021   4.27170e+14
 917.5794   4.25735e+14
 917.8568   4.27967e+14
 918.1340   4.28878e+14
 918.4111   4.30231e+14
 918.6885   4.31212e+14
 918.9656   4.30859e+14
 919.2429   4.28529e+14
 919.5200   4.28151e+14
 919.7972   4.28321e+14
 920.0744   4.26794e+14
 920.3514   4.25344e+14
 920.6285   4.25625e+14
 920.9058   4.21770e+14
 921.1829   4.14187e+14
 921.4598   4.05961e+14
 921.7369   4.07878e+14
 922.0140   4.11980e+14
 922.2910   4.17269e+14
 922.5681   4.13780e+14
 922.8451   4.00050e+14
 923.1221   3.94227e+14
 923.3990   4.04153e+14
 923.6760   4.10417e+14
 923.9530   4.09711e+14
 924.2300   4.12729e+14
 924.5068   4.14806e+14
 924.7838   4.12644e+14
 925.0607   4.15701e+14
 925.3376   4.15142e+14
 925.6144   4.02445e+14
 925.8914   3.95228e+14
 926.1683   4.06063e+14
 926.4451   4.14428e+14
 926.7219   4.18284e+14
 926.9987   4.21119e+14
 927.2755   4.21400e+14
 927.5524   4.21932e+14
 927.8291   4.22346e+14
 928.1059   4.19396e+14
 928.3828   4.19314e+14
 928.6595   4.19401e+14
 928.9363   4.17681e+14
 929.2130   4.16534e+14
 929.4897   4.18282e+14
 929.7664   4.18030e+14
 930.0432   4.19870e+14
 930.3198   4.22095e+14
 930.5966   4.21526e+14
 930.8732   4.18079e+14
 931.1498   4.16763e+14
 931.4266   4.18193e+14
 931.7032   4.18626e+14
 931.9798   4.16788e+14
 932.2565   4.18693e+14
 932.5331   4.19136e+14
 932.8097   4.19659e+14
 933.0863   4.21051e+14
 933.3629   4.20283e+14
 933.6395   4.17366e+14
 933.9160   4.19273e+14
 934.1926   4.20675e+14
 934.4692   4.18332e+14
 934.7458   4.16469e+14
 935.0223   4.16811e+14
 935.2989   4.15704e+14
 935.5754   4.17070e+14
 935.8519   4.14755e+14
 936.1285   4.13007e+14
 936.4050   4.13828e+14
 936.6815   4.18344e+14
 936.9580   4.18792e+14
 937.2346   4.16193e+14
 937.5110   4.13631e+14
 937.7875   4.16736e+14
 938.0639   4.17121e+14
 938.3405   4.15151e+14
 938.6169   4.14863e+14
 938.8934   4.14114e+14
 939.1699   4.14130e+14
 939.4464   4.14319e+14
 939.7227   4.13506e+14
 939.9992   4.15024e+14
 940.2756   4.11903e+14
 940.5521   4.02541e+14
 940.8285   3.97345e+14
 941.1049   4.04526e+14
 941.3813   3.91594e+14
 941.6577   3.78376e+14
 941.9341   3.96302e+14
 942.2105   4.11329e+14
 942.4869   4.13278e+14
 942.7634   4.15227e+14
 943.0398   4.09704e+14
 943.3162   4.01556e+14
 943.5926   4.03946e+14
 943.8690   4.03650e+14
 944.1453   4.01294e+14
 944.4217   4.07058e+14
 944.6981   4.07470e+14
 944.9744   4.09928e+14
 945.2508   4.12018e+14
 945.5272   4.09795e+14
 945.8035   4.11360e+14
 946.0799   4.14935e+14
 946.3563   4.12316e+14
 946.6326   4.12125e+14
 946.9091   4.14276e+14
 947.1854   4.14890e+14
 947.4617   4.14412e+14
 947.7381   4.14495e+14
 948.0145   4.13994e+14
 948.2908   4.14007e+14
 948.5671   4.13905e+14
 948.8435   4.13849e+14
 949.1199   4.14301e+14
 949.3962   4.14465e+14
 949.6726   4.11925e+14
 949.9489   4.13174e+14
 950.2253   4.11361e+14
 950.5016   4.08996e+14
 950.7780   4.09905e+14
 951.0543   4.11145e+14
 951.3307   4.08586e+14
 951.6070   4.09438e+14
 951.8834   4.09191e+14
 952.1597   4.07763e+14
 952.4361   4.09750e+14
 952.7124   4.10123e+14
 952.9888   4.05047e+14
 953.2652   4.05999e+14
 953.5416   4.06751e+14
 953.8179   4.05391e+14
 954.0943   4.03509e+14
 954.3707   3.96724e+14
 954.6470   3.81332e+14
 954.9234   3.80965e+14
 955.1998   3.93590e+14
 955.4761   4.01379e+14
 955.7525   4.04808e+14
 956.0288   4.07620e+14
 956.3052   4.08224e+14
 956.5817   4.08807e+14
 956.8580   4.07613e+14
 957.1345   4.02852e+14
 957.4109   4.02080e+14
 957.6872   4.06039e+14
 957.9636   4.07898e+14
 958.2401   4.09448e+14
 958.5165   4.09494e+14
 958.7929   4.08989e+14
 959.0693   4.08746e+14
 959.3457   4.09412e+14
 959.6222   4.08578e+14
 959.8986   4.07391e+14
 960.1750   4.04452e+14
 960.4515   4.02354e+14
 960.7279   4.03015e+14
 961.0043   4.07380e+14
 961.2809   4.09508e+14
 961.5574   4.10707e+14
 961.8338   4.08759e+14
 962.1103   4.02292e+14
 962.3867   3.99563e+14
 962.6633   3.99396e+14
 962.9398   4.00716e+14
 963.2162   4.07166e+14
 963.4927   4.04809e+14
 963.7693   4.01000e+14
 964.0458   4.00899e+14
 964.3223   4.06427e+14
 964.5989   4.08053e+14
 964.8754   4.05909e+14
 965.1520   4.04417e+14
 965.4285   4.02996e+14
 965.7051   3.99010e+14
 965.9816   3.93045e+14
 966.2582   3.96614e+14
 966.5348   4.04890e+14
 966.8115   4.05733e+14
 967.0881   4.05966e+14
 967.3646   4.03064e+14
 967.6412   4.00106e+14
 967.9180   4.00700e+14
 968.1945   4.05098e+14
 968.4711   4.05731e+14
 968.7478   4.05260e+14
 969.0245   4.00388e+14
 969.3011   4.00094e+14
 969.5778   4.02345e+14
 969.8545   4.03486e+14
 970.1313   4.01005e+14
 970.4081   3.98997e+14
 970.6848   3.98007e+14
 970.9614   4.00967e+14
 971.2382   4.04316e+14
 971.5150   4.04884e+14
 971.7917   4.03320e+14
 972.0685   4.03009e+14
 972.3453   4.01737e+14
 972.6221   4.02007e+14
 972.8989   3.98958e+14
 973.1757   3.99052e+14
 973.4526   3.99424e+14
 973.7294   3.95759e+14
 974.0063   3.89675e+14
 974.2830   3.93875e+14
 974.5599   3.97671e+14
 974.8368   3.97689e+14
 975.1138   3.98550e+14
 975.3907   3.97386e+14
 975.6676   3.97285e+14
 975.9446   3.99694e+14
 976.2215   3.97397e+14
 976.4985   3.91781e+14
 976.7755   3.92650e+14
 977.0525   3.96461e+14
 977.3295   3.96688e+14
 977.6064   3.99124e+14
 977.8835   3.97909e+14
 978.1605   3.96712e+14
 978.4376   3.92737e+14
 978.7147   3.91008e+14
 978.9918   3.91911e+14
 979.2689   3.95903e+14
 979.5460   3.97425e+14
 979.8231   3.96036e+14
 980.1002   3.91447e+14
 980.3774   3.91431e+14
 980.6545   3.95130e+14
 980.9318   3.96689e+14
 981.2090   3.94694e+14
 981.4862   3.95546e+14
 981.7634   3.96252e+14
 982.0407   3.97146e+14
 982.3179   3.96678e+14
 982.5952   3.95024e+14
 982.8726   3.93440e+14
 983.1499   3.94296e+14
 983.4272   3.92572e+14
 983.7046   3.93213e+14
 983.9819   3.94437e+14
 984.2592   3.94816e+14
 984.5366   3.94966e+14
 984.8140   3.96255e+14
 985.0915   3.94673e+14
 985.3689   3.94496e+14
 985.6464   3.93100e+14
 985.9239   3.94208e+14
 986.2014   3.91882e+14
 986.4789   3.91330e+14
 986.7563   3.92968e+14
 987.0339   3.92813e+14
 987.3116   3.92548e+14
 987.5892   3.94306e+14
 987.8668   3.96224e+14
 988.1444   3.96878e+14
 988.4221   3.95027e+14
 988.6997   3.93820e+14
 988.9774   3.88063e+14
 989.2551   3.86486e+14
 989.5328   3.92188e+14
 989.8105   3.96151e+14
 990.0883   3.95250e+14
 990.3660   3.96928e+14
 990.6439   3.97060e+14
 990.9216   3.97752e+14
 991.1995   3.95705e+14
 991.4774   3.95210e+14
 991.7553   3.96217e+14
 992.0332   3.98465e+14
 992.3111   3.96881e+14
 992.5890   3.96676e+14
 992.8670   3.95746e+14
 993.1450   3.93909e+14
 993.4229   3.93453e+14
 993.7009   3.97002e+14
 993.9791   3.97344e+14
 994.2571   3.96030e+14
 994.5352   3.93671e+14
 994.8132   3.94664e+14
 995.0914   3.94373e+14
 995.3695   3.94990e+14
 995.6477   3.94943e+14
 995.9260   3.95736e+14
 996.2042   3.95177e+14
 996.4824   3.95983e+14
 996.7607   3.95843e+14
 997.0389   3.96786e+14
 997.3173   3.96134e+14
 997.5956   3.96264e+14
 997.8740   3.94773e+14
 998.1523   3.94569e+14
 998.4307   3.93859e+14
 998.7092   3.94292e+14
 998.9875   3.93348e+14
 999.2661   3.94028e+14
 999.5445   3.90479e+14
 999.8231   3.91267e+14
1000.1016   3.92389e+14
1000.3801   3.93900e+14
1000.6588   3.93529e+14
1000.9374   3.94429e+14
1001.2160   3.92809e+14
1001.4947   3.93651e+14
1001.7734   3.92587e+14
1002.0521   3.92858e+14
1002.3309   3.91270e+14
1002.6096   3.91559e+14
1002.8885   3.89919e+14
1003.1672   3.90423e+14
1003.4460   3.87334e+14
1003.7250   3.84135e+14
1004.0038   3.81693e+14
1004.2828   3.82404e+14
1004.5618   3.77028e+14
1004.8407   3.66095e+14
1005.1198   3.53681e+14
1005.3987   3.60776e+14
1005.6778   3.71884e+14
1005.9569   3.79094e+14
1006.2361   3.81817e+14
1006.5151   3.80757e+14
1006.7943   3.77744e+14
1007.0735   3.81355e+14
1007.3527   3.84277e+14
1007.6320   3.86481e+14
1007.9113   3.85693e+14
1008.1907   3.86462e+14
1008.4699   3.84626e+14
1008.7493   3.85196e+14
1009.0287   3.84733e+14
1009.3081   3.86033e+14
1009.5876   3.85829e+14
1009.8671   3.86956e+14
1010.1465   3.85653e+14
1010.4261   3.86579e+14
1010.7056   3.85301e+14
1010.9852   3.86291e+14
1011.2649   3.84220e+14
1011.5445   3.83749e+14
1011.8242   3.83582e+14
1012.1040   3.85200e+14
1012.3837   3.81270e+14
1012.6635   3.80124e+14
1012.9433   3.82058e+14
1013.2231   3.86021e+14
1013.5029   3.84722e+14
1013.7829   3.85125e+14
1014.0628   3.83375e+14
1014.3428   3.82352e+14
1014.6228   3.76590e+14
1014.9028   3.77166e+14
1015.1829   3.80415e+14
1015.4630   3.83403e+14
1015.7431   3.81109e+14
1016.0232   3.83608e+14
1016.3034   3.83570e+14
1016.5836   3.84596e+14
1016.8638   3.82934e+14
1017.1442   3.83729e+14
1017.4244   3.82664e+14
1017.7048   3.84159e+14
1017.9852   3.83899e+14
1018.2656   3.84220e+14
1018.5460   3.83572e+14
1018.8265   3.84968e+14
1019.1070   3.82519e+14
1019.3876   3.80831e+14
1019.6681   3.79210e+14
1019.9487   3.82665e+14
1020.2294   3.82678e+14
1020.5101   3.84489e+14
1020.7908   3.82934e+14
1021.0715   3.83714e+14
1021.3524   3.81196e+14
1021.6332   3.77799e+14
1021.9140   3.72467e+14
1022.1948   3.78087e+14
1022.4757   3.80919e+14
1022.7567   3.82215e+14
1023.0377   3.80113e+14
1023.3188   3.82514e+14
1023.5998   3.81640e+14
1023.8810   3.84112e+14
1024.1621   3.82332e+14
1024.4432   3.83321e+14
1024.7244   3.81138e+14
1025.0057   3.82780e+14
1025.2870   3.80782e+14
1025.5682   3.82565e+14
1025.8495   3.80796e+14
1026.1311   3.82624e+14
1026.4125   3.80485e+14
1026.6938   3.82030e+14
1026.9755   3.80272e+14
1027.2570   3.81637e+14
1027.5385   3.79318e+14
1027.8202   3.80664e+14
1028.1017   3.79381e+14
1028.3835   3.81770e+14
1028.6652   3.78797e+14
1028.9470   3.77849e+14
1029.2286   3.75437e+14
1029.5106   3.79794e+14
1029.7924   3.77808e+14
1030.0743   3.79314e+14
1030.3563   3.76213e+14
1030.6383   3.79077e+14
1030.9204   3.78226e+14
1031.2024   3.79420e+14
1031.4845   3.76050e+14
1031.7666   3.79925e+14
1032.0488   3.77818e+14
1032.3312   3.79470e+14
1032.6134   3.73787e+14
1032.8958   3.71022e+14
1033.1781   3.68106e+14
1033.4604   3.76328e+14
1033.7429   3.76066e+14
1034.0254   3.77404e+14
1034.3080   3.70520e+14
1034.5905   3.69750e+14
1034.8730   3.70150e+14
1035.1556   3.76814e+14
1035.4384   3.75410e+14
1035.7212   3.78714e+14
1036.0039   3.76458e+14
1036.2866   3.79486e+14
1036.5695   3.75271e+14
1036.8524   3.77332e+14
1037.1353   3.71062e+14
1037.4182   3.71253e+14
1037.7013   3.71258e+14
1037.9843   3.76158e+14
1038.2675   3.73524e+14
1038.5505   3.78821e+14
1038.8337   3.76968e+14
1039.1169   3.79578e+14
1039.4001   3.75458e+14
1039.6835   3.76926e+14
1039.9668   3.70588e+14
1040.2502   3.73297e+14
1040.5337   3.70281e+14
1040.8171   3.73934e+14
1041.1007   3.71072e+14
1041.3843   3.75891e+14
1041.6678   3.71012e+14
1041.9517   3.73845e+14
1042.2352   3.69166e+14
1042.5190   3.72206e+14
1042.8027   3.68225e+14
1043.0867   3.74794e+14
1043.3705   3.70963e+14
1043.6544   3.75152e+14
1043.9384   3.70756e+14
1044.2224   3.75604e+14
1044.5065   3.71342e+14
1044.7906   3.75881e+14
1045.0748   3.69591e+14
1045.3589   3.71831e+14
1045.6431   3.60296e+14
1045.9275   3.62679e+14
1046.2118   3.61038e+14
1046.4962   3.71114e+14
1046.7805   3.66986e+14
1047.0651   3.70423e+14
1047.3496   3.64051e+14
1047.6342   3.71532e+14
1047.9188   3.67219e+14
1048.2035   3.72357e+14
1048.4882   3.65629e+14
1048.7729   3.70340e+14
1049.0577   3.64336e+14
1049.3427   3.70232e+14
1049.6274   3.63062e+14
1049.9125   3.67984e+14
1050.1974   3.61501e+14
1050.4824   3.68265e+14
1050.7676   3.62025e+14
1051.0527   3.68508e+14
1051.3380   3.59924e+14
1051.6233   3.66628e+14
1051.9084   3.59746e+14
1052.1937   3.67351e+14
1052.4792   3.60094e+14
1052.7646   3.67120e+14
1053.0500   3.57041e+14
1053.3357   3.61945e+14
1053.6212   3.55360e+14
1053.9070   3.65674e+14
1054.1925   3.58059e+14
1054.4783   3.65829e+14
1054.7642   3.58894e+14
1055.0499   3.68744e+14
1055.3358   3.53996e+14
1055.6218   3.67024e+14
1055.9078   3.57991e+14
1056.1937   3.67518e+14
1056.4799   3.60082e+14
1056.7660   3.68958e+14
1057.0522   3.58617e+14
1057.3384   3.67584e+14
1057.6246   3.56629e+14
1057.9111   3.65436e+14
1058.1975   3.52575e+14
1058.4840   3.53786e+14
1058.7705   3.36634e+14
1059.0570   3.57883e+14
1059.3436   3.56784e+14
1059.6302   3.69867e+14
1059.9171   1.99172e+14
1060.2037   1.46302e+13
1060.4906  -9.09483e+12
1060.7773   4.32669e+12
1061.0643  -1.03472e+13
1061.3513   2.81325e+12
1061.6384  -9.15471e+12
1061.9254   1.24193e+12
1062.2126  -6.97156e+12
1062.4998   4.65177e+11
1062.7871  -5.55597e+12
 971.3710  -4.01278e+14
 972.1806  -4.06761e+14
 972.9901  -1.43995e+15
 973.7994  -3.45488e+15
 974.6085   3.29473e+16
 975.4174  -3.84359e+16
 976.2261  -3.31762e+15
 977.0346  -6.53969e+14
 977.8430  -5.32410e+14
 978.6511  -2.14892e+14
 979.4589  -1.15196e+14
 980.2667   2.85279e+14
 981.0742   2.34753e+14
 981.8815   2.50835e+14
 982.6887   2.76514e+14
 983.4955   3.11323e+14
 984.3022   2.92217e+14
 985.1087   2.96072e+14
 985.9150   2.98910e+14
 986.7212   2.77673e+14
 987.5272   2.65049e+14
 988.3329   2.79640e+14
 989.1385   3.26272e+14
 989.9438   2.86964e+14
 990.7489   3.26562e+14
 991.5539   3.08852e+14
 992.3587   3.13941e+14
 993.1633   3.03149e+14
 993.9677   3.22281e+14
 994.7719   3.28978e+14
 995.5760   3.18104e+14
 996.3798   3.12191e+14
 997.1835   3.41191e+14
 997.9868   3.08228e+14
 998.7901   3.27689e+14
 999.5932   3.32221e+14
1000.3960   3.39369e+14
1001.1987   3.23295e+14
1002.0012   3.49958e+14
1002.8035   3.47092e+14
1003.6056   3.30916e+14
1004.4076   3.25831e+14
1005.2094   3.28158e+14
1006.0110   3.17772e+14
1006.8124   3.78578e+14
1007.6135   3.32065e+14
1008.4146   3.53580e+14
1009.2154   3.42055e+14
1010.0161   3.35459e+14
1010.8166   3.40400e+14
1011.6168   3.48513e+14
1012.4169   3.42960e+14
1013.2169   3.75685e+14
1014.0167   3.44396e+14
1014.8163   3.55836e+14
1015.6157   3.51430e+14
1016.4149   3.62367e+14
1017.2139   3.50573e+14
1018.0127   3.65008e+14
1018.8114   3.55075e+14
1019.6100   3.54049e+14
1020.4083   3.50317e+14
1021.2064   3.55717e+14
1022.0045   3.51330e+14
1022.8022   3.58190e+14
1023.5997   3.55224e+14
1024.3972   3.61291e+14
1025.1945   3.59243e+14
1025.9917   3.63098e+14
1026.7885   3.57061e+14
1027.5853   3.60825e+14
1028.3818   3.57058e+14
1029.1781   3.62513e+14
1029.9745   3.57368e+14
1030.7705   3.61021e+14
1031.5664   3.59150e+14
1032.3621   3.68002e+14
1033.1577   3.55774e+14
1033.9530   3.56503e+14
1034.7483   3.54868e+14
1035.5433   3.57515e+14
1036.3381   3.58580e+14
1037.1329   3.60638e+14
1037.9274   3.56839e+14
1038.7218   3.59838e+14
1039.5160   3.60186e+14
1040.3101   3.55040e+14
1041.1039   3.58238e+14
1041.8976   3.57473e+14
1042.6912   3.56814e+14
1043.4844   3.57513e+14
1044.2777   3.57901e+14
1045.0707   3.55598e+14
1045.8635   3.50104e+14
1046.6564   3.50314e+14
1047.4487   3.53950e+14
1048.2413   3.57854e+14
1049.0334   3.53569e+14
1049.8254   3.51961e+14
1050.6174   3.51414e+14
1051.4092   3.49881e+14
1052.2008   3.50318e+14
1052.9922   3.48249e+14
1053.7834   3.48073e+14
1054.5746   3.48502e+14
1055.3655   3.50335e+14
1056.1564   3.49713e+14
1056.9469   3.49841e+14
1057.7374   3.45840e+14
1058.5278   3.39483e+14
1059.3179   3.41071e+14
1060.1079   3.43721e+14
1060.8978   2.47342e+14
1061.6874   3.47333e+14
1062.4771   3.47741e+14
1063.2664   3.48593e+14
1064.0557   3.50766e+14
1064.8447   3.53496e+14
1065.6335   3.51205e+14
1066.4224   3.50231e+14
1067.2111   3.56835e+14
1067.9995   3.55453e+14
1068.7878   3.45470e+14
1069.5760   3.44255e+14
1070.3640   3.54780e+14
1071.1517   3.59263e+14
1071.9396   3.59495e+14
1072.7272   3.52967e+14
1073.5145   3.52924e+14
1074.3019   3.55244e+14
1075.0890   3.50080e+14
1075.8760   3.51634e+14
1076.6628   3.56499e+14
1077.4496   3.54860e+14
1078.2361   3.48306e+14
1079.0225   3.43763e+14
1079.8087   3.49076e+14
1080.5947   3.46868e+14
1081.3807   3.39804e+14
1082.1666   3.38095e+14
1082.9523   3.34976e+14
1083.7379   3.38048e+14
1084.5232   3.42194e+14
1085.3085   3.44308e+14
1086.0935   3.43470e+14
1086.8785   3.32583e+14
1087.6633   3.33641e+14
1088.4479   3.39656e+14
1089.2325   3.41283e+14
1090.0170   3.45830e+14
1090.8013   3.47221e+14
1091.5853   3.42938e+14
1092.3694   3.41883e+14
1093.1532   3.35100e+14
1093.9369   3.24325e+14
1094.7206   3.29957e+14
1095.5039   3.36674e+14
1096.2872   3.36904e+14
1097.0704   3.38873e+14
1097.8535   3.38696e+14
1098.6364   3.40110e+14
1099.4191   3.46049e+14
1100.2018   3.48006e+14
1100.9843   3.46341e+14
1101.7666   3.41567e+14
1102.5490   3.43589e+14
1103.3309   3.47748e+14
1104.1129   3.48636e+14
1104.8948   3.48973e+14
1105.6765   3.49361e+14
1106.4581   3.49965e+14
1107.2395   3.49957e+14
1108.0208   3.49918e+14
1108.8021   3.49493e+14
1109.5831   3.50044e+14
1110.3640   3.49783e+14
1111.1448   3.48413e+14
1111.9255   3.45405e+14
1112.7061   3.42523e+14
1113.4865   3.41410e+14
1114.2667   3.42461e+14
1115.0470   2.30133e+14
1115.8270   3.38927e+14
1116.6069   3.38893e+14
1117.3867   3.38223e+14
1118.1663   3.35300e+14
1118.9459   3.28887e+14
1119.7253   3.27798e+14
1120.5046   3.30545e+14
1121.2838   3.30885e+14
1122.0630   3.31759e+14
1122.8419   3.30100e+14
1123.6207   3.28500e+14
1124.3994   3.27009e+14
1125.1780   3.20483e+14
1125.9564   3.18641e+14
1126.7347   3.25803e+14
1127.5131   3.27360e+14
1128.2910   3.24502e+14
1129.0691   3.20292e+14
1129.8470   3.20461e+14
1130.6248   3.23649e+14
1131.4023   3.24228e+14
1132.1799   3.24509e+14
1132.9572   3.23257e+14
1133.7346   3.22014e+14
1134.5117   3.23901e+14
1135.2888   3.21453e+14
1136.0657   3.23687e+14
1136.8425   3.25292e+14
1137.6193   3.22276e+14
1138.3960   2.58190e+14
1139.1724   3.20004e+14
1139.9489   3.19339e+14
1140.7251   3.16721e+14
1141.5012   3.20796e+14
1142.2773   3.23576e+14
1143.0533   3.24345e+14
1143.8292   3.23211e+14
1144.6047   3.22483e+14
1145.3804   3.24369e+14
1146.1559   3.24247e+14
1146.9314   3.22973e+14
1147.7065   3.22130e+14
1148.4819   3.18639e+14
1149.2570   3.19265e+14
1150.0319   3.20067e+14
1150.8068   3.19641e+14
1151.5815   3.20520e+14
1152.3561   3.20436e+14
1153.1306   3.21869e+14
1153.9053   3.22676e+14
1154.6796   3.22830e+14
1155.4539   3.22988e+14
1156.2279   3.23301e+14
1157.0020   3.22143e+14
1157.7759   3.21677e+14
1158.5497   3.19600e+14
1159.3235   3.13870e+14
1160.0972   3.13937e+14
1160.8707   3.09481e+14
1161.6442   3.11992e+14
1162.4175   3.17883e+14
1163.1908   3.16932e+14
1163.9639   3.14445e+14
1164.7369   3.15050e+14
1165.5099   3.15645e+14
1166.2827   3.14498e+14
1167.0557   3.14360e+14
1167.8282   3.16658e+14
1168.6007   3.15748e+14
1169.3733   3.12628e+14
1170.1456   3.14914e+14
1170.9180   3.17316e+14
1171.6901   3.18585e+14
1172.4622   3.18369e+14
1173.2343   3.18082e+14
1174.0060   3.17390e+14
1174.7778   3.13245e+14
1175.5497   3.08569e+14
1176.3213   3.13340e+14
1177.0929   3.14510e+14
1177.8644   3.12773e+14
1178.6356   3.13654e+14
1179.4070   3.16315e+14
1180.1782   3.16979e+14
1180.9492   3.17254e+14
1181.7202   3.16073e+14
1182.4912   3.05911e+14
1183.2620   2.98386e+14
1184.0328   3.06459e+14
1184.8035   3.12686e+14
1185.5741   3.13642e+14
1186.3445   3.14828e+14
1187.1149   3.14828e+14
1187.8853   3.10813e+14
1188.6556   3.04129e+14
1189.4258   3.08485e+14
1190.1958   3.13232e+14
1190.9658   3.17232e+14
1191.7357   3.18045e+14
1192.5056   3.17075e+14
1193.2753   3.17200e+14
1194.0450   3.17233e+14
1194.8147   3.14714e+14
1195.5841   1.56611e+14
1196.3536   3.16140e+14
1197.1229   3.12214e+14
1197.8921   3.06100e+14
1198.6614   2.98884e+14
1199.4305   3.00876e+14
1200.1995   3.10723e+14
1200.9685   3.14134e+14
1201.7373   3.14264e+14
1202.5062   3.09439e+14
1203.2750   2.97255e+14
1204.0436   3.00488e+14
1204.8123   3.08424e+14
1205.5808   3.08957e+14
1206.3492   3.08042e+14
1207.1176   3.06858e+14
1207.8859   2.98318e+14
1208.6541   2.92664e+14
1209.4222   2.97665e+14
1210.1903   2.97155e+14
1210.9584   2.94500e+14
1211.7262   3.00219e+14
1212.4941   3.03084e+14
1213.2620   3.02378e+14
1214.0297   3.02442e+14
1214.7974   3.04432e+14
1215.5649   3.04728e+14
1216.3325   3.04650e+14
1217.0999   3.03309e+14
1217.8673   3.02144e+14
1218.6346   3.02021e+14
1219.4020   3.02481e+14
1220.1692   3.04202e+14
1220.9363   3.05314e+14
1221.7032   3.05345e+14
1222.4702   3.05440e+14
1223.2372   3.05274e+14
1224.0040   3.07047e+14
1224.7709   3.07961e+14
1225.5376   3.08235e+14
1226.3043   3.06912e+14
1227.0709   3.01541e+14
1227.8375   3.03065e+14
1228.6040   3.07035e+14
1229.3705   3.05529e+14
1230.1368   3.06094e+14
1230.9033   3.07012e+14
1231.6696   3.06047e+14
1232.4357   3.05475e+14
1233.2018   3.05235e+14
1233.9680   3.03637e+14
1234.7339   3.03240e+14
1235.4999   3.03310e+14
1236.2657   3.02974e+14
1237.0317   3.02932e+14
1237.7976   3.02922e+14
1238.5632   3.01838e+14
1239.3290   2.98314e+14
1240.0947   2.97943e+14
1240.8602   2.99634e+14
1241.6259   2.98545e+14
1242.3914   2.96116e+14
1243.1567   2.93772e+14
1243.9221   2.93559e+14
1244.6874   2.96901e+14
1245.4528   2.96854e+14
1246.2180   2.96254e+14
1246.9832   2.96873e+14
1247.7483   2.96312e+14
1248.5134   2.96007e+14
1249.2784   2.95611e+14
1250.0433   2.95030e+14
1250.8082   2.94563e+14
1251.5732   2.94167e+14
1252.3380   2.92174e+14
1253.1029   2.92235e+14
1253.8677   2.93617e+14
1254.6324   2.93756e+14
1255.3971   2.91877e+14
1256.1616   2.91164e+14
1256.9261   2.90925e+14
1257.6908   2.91358e+14
1258.4553   2.89722e+14
1259.2197   2.90956e+14
1259.9841   2.91457e+14
1260.7485   2.88558e+14
1261.5128   2.87855e+14
1262.2771   2.70679e+13
1263.0413   2.88535e+14
1263.8055   2.87465e+14
1264.5696   2.87967e+14
1265.3339   2.88594e+14
1266.0980   2.90050e+14
1266.8619   2.90239e+14
1267.6259   2.87817e+14
1268.3899   2.86685e+14
1269.1538   2.89980e+14
1269.9177   2.91850e+14
1270.6816   2.92140e+14
1271.4454   2.91842e+14
1272.2092   2.91669e+14
1272.9729   2.91294e+14
1273.7367   2.90285e+14
1274.5004   2.89894e+14
1275.2640   2.90580e+14
1276.0276   2.90268e+14
1276.7913   2.89721e+14
1277.5548   2.88772e+14
1278.3184   2.87485e+14
1279.0819   2.85594e+14
1279.8453   2.83297e+14
1280.6088   2.77068e+14
1281.3721   2.60150e+14
1282.1355   6.41993e+13
1282.8989   2.64100e+14
1283.6622   2.75451e+14
1284.4255   2.78405e+14
1285.1888   2.79500e+14
1285.9520   2.80407e+14
1286.7152   2.80286e+14
1287.4784   2.79537e+14
1288.2416   2.78062e+14
1289.0048   2.78585e+14
1289.7678   2.75647e+14
1290.5309   2.74794e+14
1291.2939   2.77781e+14
1292.0570   2.78608e+14
1292.8201   2.78419e+14
1293.5831   2.77461e+14
1294.3461   2.78155e+14
1295.1089   2.78876e+14
1295.8718   2.79090e+14
1296.6349   2.78876e+14
1297.3977   2.77194e+14
1298.1605   2.76574e+14
1298.9235   2.78428e+14
1299.6863   2.76522e+14
1300.4491   2.77539e+14
1301.2119   2.77790e+14
1301.9747   2.77929e+14
1302.7374   2.76660e+14
1303.5001   2.74621e+14
1304.2628   2.76872e+14
1305.0256   2.77768e+14
1305.7883   2.77939e+14
1306.5510   2.78229e+14
1307.3137   2.77893e+14
1308.0763   2.77950e+14
1308.8390   2.77441e+14
1309.6016   2.76403e+14
1310.3643   2.73773e+14
1311.1270   2.74853e+14
1311.8894   2.71435e+14
1312.6520   2.65946e+14
1313.4147   2.70787e+14
1314.1772   2.72397e+14
1314.9397   2.65875e+14
1315.7023   2.65639e+14
1316.4648   2.71736e+14
1317.2273   2.70104e+14
1317.9899   2.67519e+14
1318.7524   2.71274e+14
1319.5150   2.72310e+14
1320.2773   2.71929e+14
1321.0399   2.70349e+14
1321.8024   2.71868e+14
1322.5648   2.72549e+14
1323.3274   2.72116e+14
1324.0898   2.71634e+14
1324.8523   2.71163e+14
1325.6147   2.70058e+14
1326.3773   2.69222e+14
1327.1396   2.69350e+14
1327.9021   2.68130e+14
1328.6647   2.62776e+14
1329.4270   2.62311e+14
1330.1896   2.67017e+14
1330.9520   2.66776e+14
1331.7144   2.64971e+14
1332.4769   2.63396e+14
1333.2394   2.66644e+14
1334.0018   2.69384e+14
1334.7644   2.68615e+14
1335.5269   2.67674e+14
1336.2892   2.68695e+14
1337.0518   2.69157e+14
1337.8142   2.68805e+14
1338.5768   2.66694e+14
1339.3392   2.64143e+14
1340.1018   2.66527e+14
1340.8641   2.68459e+14
1341.6267   2.67681e+14
1342.3893   2.67683e+14
1343.1517   2.66131e+14
1343.9143   2.66016e+14
1344.6769   2.67276e+14
1345.4393   2.66462e+14
1346.2020   2.65799e+14
1346.9645   2.65708e+14
1347.7271   2.64845e+14
1348.4897   2.63651e+14
1349.2522   2.63154e+14
1350.0149   2.60154e+14
1350.7776   2.60188e+14
1351.5402   2.62663e+14
1352.3027   2.62040e+14
1353.0654   2.61651e+14
1353.8281   2.61419e+14
1354.5909   2.59702e+14
1355.3535   2.60172e+14
1356.1162   2.58704e+14
1356.8789   2.57748e+14
1357.6417   2.58944e+14
1358.4045   2.58761e+14
1359.1674   2.59418e+14
1359.9302   2.57593e+14
1360.6929   2.56992e+14
1361.4557   2.59213e+14
1362.2186   2.61253e+14
1362.9814   2.57344e+14
1363.7444   2.56679e+14
1364.5073   2.58197e+14
1365.2703   2.56715e+14
1366.0332   2.58163e+14
1366.7963   2.55602e+14
1367.5592  -3.43829e+13
1368.3221  -2.41017e+14
1369.0853   2.56286e+14
1369.8483   2.55038e+14
1370.6115   2.56432e+14
1371.3746   2.52944e+14
1372.1377   2.52827e+14
1372.9010   2.55037e+14
1373.6641   2.56631e+14
1374.4274   2.55806e+14
1375.1906   2.54207e+14
1375.9539   2.54322e+14
1376.7170   2.55546e+14
1377.4805   2.56494e+14
1378.2439   2.54992e+14
1379.0072   2.53828e+14
1379.7706   2.59407e+14
1380.5341   2.61148e+14
1381.2976   2.58523e+14
1382.0610   2.57855e+14
1382.8247   2.56127e+14
1383.5881   2.55361e+14
1384.3518   2.56532e+14
1385.1154   2.55100e+14
1385.8792   2.55015e+14
1386.6427   2.54587e+14
1387.4066   2.55669e+14
1388.1703   2.54255e+14
1388.9342   2.54923e+14
1389.6980   2.53238e+14
1390.4619   2.51421e+14
1391.2258   2.53463e+14
1391.9897   2.55585e+14
1392.7539   2.56101e+14
1393.5177   2.54230e+14
1394.2819   2.53095e+14
1395.0460   2.52038e+14
1395.8102   2.52302e+14
1396.5743   2.52566e+14
1397.3386   2.51493e+14
1398.1028   2.51887e+14
1398.8672   2.51040e+14
1399.6315   2.45793e+14
1400.3959   2.41101e+14
1401.1603   2.43559e+14
1401.9248   2.46713e+14
1402.6893   2.47380e+14
1403.4537   2.46221e+14
1404.2184   2.45837e+14
1404.9830   2.47688e+14
1405.7478   2.47024e+14
1406.5126   2.43703e+14
1407.2773   2.41246e+14
1408.0421   2.41506e+14
1408.8071   2.43313e+14
1409.5720   2.43377e+14
1410.3370   2.43761e+14
1411.1021   2.44242e+14
1411.8671   2.42255e+14
1412.6322   2.41042e+14
1413.3975   2.42457e+14
1414.1626   2.42780e+14
1414.9279   2.42815e+14
1415.6932   2.44344e+14
1416.4586   2.45042e+14
1417.2241   2.45118e+14
1417.9895   2.44365e+14
1418.7551   2.43178e+14
1419.5206   2.43126e+14
1420.2864   2.42175e+14
1421.0520   2.43077e+14
1421.8177   2.43653e+14
1422.5836   2.40932e+14
1423.3495   2.39964e+14
1424.1154   2.40946e+14
1424.8813   2.43703e+14
1425.6475   2.42879e+14
1426.4135   2.44815e+14
1427.1796   2.45152e+14
1427.9459   2.43274e+14
1428.7122   2.40603e+14
1429.4785   2.39717e+14
1430.2449   2.42445e+14
1431.0112   2.43358e+14
1431.7778   2.44229e+14
1432.5443   2.45407e+14
1433.3110   2.45666e+14
1434.0778   2.46096e+14
1434.8446   2.47026e+14
1435.6115   2.46854e+14
1436.3782   2.46993e+14
1437.1453   2.46712e+14
1437.9122   2.46611e+14
1438.6793   2.46536e+14
1439.4465   2.41310e+14
1440.2136   2.33924e+14
1440.9811   2.38755e+14
1441.7484   2.41963e+14
1442.5157   2.40374e+14
1443.2833   2.41580e+14
1444.0508   2.39873e+14
1444.8185   2.40652e+14
1445.5862   2.42398e+14
1446.3539   2.41691e+14
1447.1218   2.42505e+14
1447.8896   2.42097e+14
1448.6576   2.41469e+14
1449.4258   2.41211e+14
1450.1938   2.38004e+14
1450.9619   2.34575e+14
1451.7303   2.34849e+14
1452.4987   2.37889e+14
1453.2671   2.38673e+14
1454.0356   2.34391e+14
1454.8041   2.30302e+14
1455.5729   2.31753e+14
1456.3416   2.33264e+14
1457.1104   2.35374e+14
1457.8793   2.37480e+14
1458.6482   2.37801e+14
1459.4171   2.36416e+14
1460.1864   2.36527e+14
1460.9554   2.36738e+14
1461.7246   2.35957e+14
1462.4941   2.36568e+14
1463.2634   2.36490e+14
1464.0330   2.35646e+14
1464.8027   2.32735e+14
1465.5723   2.30125e+14
1466.3420   2.34866e+14
1467.1119   2.36368e+14
1467.8818   2.35074e+14
1468.6519   2.34839e+14
1469.4219   2.34643e+14
1470.1921   2.31214e+14
1470.9624   2.29883e+14
1471.7327   2.29799e+14
1472.5032   2.31939e+14
1473.2737   2.34172e+14
1474.0442   2.34099e+14
1474.8149   2.32138e+14
1475.5857   2.31500e+14
1476.3566   2.33273e+14
1477.1274   2.32855e+14
1477.8986   2.31160e+14
1478.6697   2.31940e+14
1479.4409   2.33587e+14
1480.2124   2.32534e+14
1480.9838   2.31046e+14
1481.7551   2.30589e+14
1482.5267   2.27538e+14
1483.2985   2.27014e+14
1484.0703   2.29648e+14
1484.8420   2.30035e+14
1485.6140   2.29582e+14
1486.3862   2.27302e+14
1487.1583   2.18454e+14
1487.9305  -1.40247e+11
1488.7029   4.25825e+14
1489.4755   2.26754e+14
1490.2479   2.26960e+14
1491.0205   2.28063e+14
1491.7933   2.29046e+14
1492.5662   2.29922e+14
1493.3390   2.28827e+14
1494.1121   2.26875e+14
1494.8853   2.26402e+14
1495.6584   2.24180e+14
1496.4318   2.24764e+14
1497.2052   2.26607e+14
1497.9788   2.25934e+14
1498.7523   2.24753e+14
1499.5261   2.25825e+14
1500.2999   2.08249e+14
1501.0739   1.85414e+14
1501.8480   2.18943e+14
1502.6222   2.04947e+14
1503.3964   2.07729e+14
1504.1707   2.05843e+14
1504.9453   2.03231e+14
1505.7198   2.15605e+14
1506.4945   2.25501e+14
1507.2693   2.26005e+14
1508.0442   2.25211e+14
1508.8192   2.24922e+14
1509.5944   2.22206e+14
1510.3695   2.22889e+14
1511.1449   2.25356e+14
1511.9203   2.23322e+14
1512.6959   2.22986e+14
1513.4717   2.22799e+14
1514.2473   2.22251e+14
1515.0233   2.23770e+14
1515.7993   2.22318e+14
1516.5754   2.20194e+14
1517.3517   2.22335e+14
1518.1279   2.22401e+14
1518.9045   2.23341e+14
1519.6810   2.23337e+14
1520.4576   2.20858e+14
1521.2346   2.18539e+14
1522.0115   2.17587e+14
1522.7885   2.18437e+14
1523.5657   2.21315e+14
1524.3429   2.19364e+14
1525.1205   2.19725e+14
1525.8979   2.21402e+14
1526.6755   2.21164e+14
1527.4534   2.22604e+14
1528.2311   2.22701e+14
1529.0092   2.17943e+14
1529.7872   2.12608e+14
1530.5656   2.17608e+14
1531.3440   4.97846e+13
1532.1223   2.21871e+14
1532.9010   2.21737e+14
1533.6798   2.19396e+14
1534.4585   2.19316e+14
1535.2377   2.21193e+14
1536.0167   2.22382e+14
1536.7960   2.22501e+14
1537.5753   2.20625e+14
1538.3547   2.18712e+14
1539.1344   2.18731e+14
1539.9141   2.15919e+14
1540.6940   2.17975e+14
1541.4740   2.20931e+14
1542.2542   2.19268e+14
1543.0344   2.19188e+14
1543.8148   2.20683e+14
1544.5953   2.20372e+14
1545.3759   2.19464e+14
1546.1567   2.18063e+14
1546.9375   2.17670e+14
1547.7186   2.15881e+14
1548.4999   2.16017e+14
1549.2811   2.15985e+14
1550.0626   2.13237e+14
1550.8441   2.13421e+14
1551.6259   2.15188e+14
1552.4077   2.14697e+14
1553.1896   2.12297e+14
1553.9717   2.09344e+14
1554.7540   2.10426e+14
1555.5364   2.08047e+14
1556.3191   2.07134e+14
1557.1017   2.11135e+14
1557.8844   2.12817e+14
1558.6675   2.10775e+14
1559.4504   2.06613e+14
1560.2336   2.08124e+14
1561.0171   2.08663e+14
1561.8005   2.07825e+14
1562.5841   2.06642e+14
1563.3679   2.06288e+14
1564.1519   2.08380e+14
1564.9359   2.09542e+14
1565.7201   2.08763e+14
1566.5045   2.07608e+14
1567.2892   2.07036e+14
1568.0737   2.05290e+14
1568.8585   2.02254e+14
1569.6434   2.02260e+14
1570.4286   2.08241e+14
1571.2137   2.11633e+14
1571.9991   2.10917e+14
1572.7847   2.08486e+14
1573.5703   2.07381e+14
1574.3562   2.00495e+14
1575.1422   1.95219e+14
1575.9282   2.00466e+14
1576.7146   1.92544e+14
1577.5010   1.91243e+14
1578.2876   2.06432e+14
1579.0742   2.08991e+14
1579.8612   2.08431e+14
1580.6482   2.08825e+14
1581.4353   2.07665e+14
1582.2227   2.01686e+14
1583.0101   2.02198e+14
1583.7979   2.01717e+14
1584.5857   2.05744e+14
1585.3735   2.09278e+14
1586.1617   2.07810e+14
1586.9500  -2.19677e+11
1587.7384   2.03197e+14
1588.5270   8.87519e+13
1589.3158   1.81950e+14
1590.1046   1.27673e+14
1590.8937   2.40772e+14
1591.6830   2.00107e+14
1592.4723   2.03468e+14
1593.2618   2.04728e+14
1594.0515   2.03443e+14
1594.8413   2.02489e+14
1595.6315   2.38348e+14
1596.4216   1.01791e+14
1597.2119   1.97573e+14
1598.0024   1.97834e+14
1598.7932   2.03317e+14
1599.5840   2.01647e+14
1600.3750   1.91895e+14
1601.1661   2.22405e+14
1601.9575   2.34659e+14
1602.7490   1.98890e+14
1603.5406   1.98306e+14
1604.3325   1.93547e+14
1605.1245   2.75956e+14
1605.9167   1.96572e+14
1606.7091   1.78938e+14
1607.5016   2.09179e+14
1608.2943   1.92183e+14
1609.0870   1.91415e+14
1609.8801   1.41366e+13
1610.6733   1.34466e+14
1611.4667   1.97653e+14
1612.2603  -1.86398e+14
1613.0540   2.44627e+14
1613.8478   1.96677e+14
1614.6417   1.96978e+14
1615.4360   1.94759e+14
1616.2305   1.92085e+14
1617.0249   2.01068e+14
1617.8197   1.94355e+14
1618.6146   1.94256e+14
1619.4098   2.39052e+14
1620.2051   2.69850e+14
1621.0005   1.93008e+14
1621.7961   1.11126e+14
1622.5920  -1.45653e+13
1623.3881   1.88129e+14
1624.1841   2.03860e+14
1624.9805   1.75202e+14
1625.7770   2.00082e+14
1626.5737  -8.46434e+13
1627.3706   2.00913e+14
1628.1677   1.58468e+14
1628.9650   7.67343e+13
1629.7625   1.97656e+14
1630.5601   1.98787e+14
1631.3578   8.91415e+13
1632.1558   1.90916e+14
1632.9539   1.77601e+14
1633.7523   1.95669e+14
1634.5508  -3.89260e+14
1635.3496   1.94991e+14
1636.1484   1.90890e+14
1636.9476   1.89058e+14
1637.7469   1.87141e+14
1638.5464  -9.96592e+13
1639.3461   3.81618e+14
1640.1459   1.54619e+14
1640.9459   1.84443e+14
1641.7462   1.87662e+14
1642.5466   1.89930e+14
1643.3473   1.88671e+14
1644.1481   1.85752e+14
1644.9491   1.88618e+14
1645.7501   1.92515e+14
1646.5515  -1.67465e+13
1647.3531  -6.37615e+14
1648.1549   1.90355e+14
1648.9569   2.65246e+14
1649.7592   1.91462e+14
1650.5615   1.92546e+14
1651.3640   1.21803e+14
1652.1667   1.95496e+14
1652.9697  -2.08772e+14
1653.7729   1.87521e+14
1654.5762   1.88858e+14
1655.3799   1.37868e+14
1656.1833  -1.47834e+14
1656.9874   1.89156e+14
1657.7916   1.93363e+14
1658.5959   1.90243e+14
1659.4005   1.91234e+14
1660.2052   1.91278e+14
1661.0101   1.90592e+14
1661.8153   8.53522e+13
1662.6207   1.89520e+14
1663.4261   1.88444e+14
1664.2319   1.89094e+14
1665.0380   1.83813e+14
1665.8441   1.94409e+14
1666.6505   2.63313e+14
1667.4570   1.79382e+14
1668.2639   1.79293e+14
1669.0709   1.84042e+14
1669.8779   1.86928e+14
1670.6853  -1.58977e+14
1671.4930   1.84706e+14
1672.3008   1.80395e+14
1673.1089  -8.65093e+12
1673.9170   2.00460e+14
1674.7255   1.80335e+14
1675.5342  -1.79204e+14
1676.3431   1.78007e+14
1677.1521   2.75807e+14
1677.9614   1.84597e+14
1678.7710   1.84621e+14
1679.5807  -2.26663e+14
1680.3907   2.03944e+14
1681.2007   7.57281e+13
1682.0111   1.76844e+14
1682.8217  -1.18170e+15
1683.6326   1.82384e+14
1684.4435   1.84170e+14
1685.2548   1.85649e+14
1686.0662   6.58580e+13
1686.8778   1.84011e+14
1687.6896   1.82404e+14
1688.5018   1.84470e+14
1689.3141   2.04406e+14
1690.1267   1.83625e+14
1690.9393   1.26451e+14
1691.7524   2.53643e+14
1692.5656   1.83161e+14
1693.3790   2.04683e+14
1694.1926   1.89359e+14
1695.0065  -2.59629e+15
1695.8206   1.79802e+14
1696.6350   1.80861e+14
1697.4493   1.77535e+14
1698.2642   1.90326e+14
1699.0792   1.81844e+14
1699.8944   2.01027e+14
1700.7097   1.78129e+14
1701.5254  -8.16234e+14
1702.3414   1.86684e+14
1703.1575   1.81615e+14
1703.9739   1.79682e+14
1704.7904   1.80258e+14
1705.6072   1.79858e+14
1706.4242   1.83694e+14
1707.2415   1.77565e+14
1708.0590   1.79782e+14
1708.8767   1.67948e+14
1709.6947   4.03764e+14
1710.5128   1.69284e+14
1711.3313   1.61705e+14
1712.1499  -2.63043e+14
1712.9688   2.55964e+14
1713.7880  -7.06234e+13
1714.6072   1.77509e+14
1715.4269  -2.10204e+13
1716.2467   2.26092e+14
1717.0667   1.75340e+14
1717.8870   4.21302e+14
1718.7076  -3.27483e+14
1719.5283   1.77382e+14
1720.3492  -9.77974e+13
1721.1705   1.74228e+14
1721.9919   1.61860e+14
1722.8137   1.71956e+14
1723.6357   1.70797e+14
1724.4579   1.74535e+14
1725.2804   1.75270e+14
1726.1030   4.57836e+14
1726.9259   5.92285e+13
1727.7491   1.72600e+14
1728.5726   4.13256e+14
1729.3962  -9.39689e+14
1730.2201  -8.31273e+14
1731.0443   1.73074e+14
1731.8685  -1.35655e+14
1732.6932   1.67487e+14
1733.5182   1.62657e+14
1734.3433   2.11076e+14
1735.1687   1.63704e+14
1735.9944  -8.23448e+14
1736.8202  -9.40707e+13
1737.6464   1.20920e+14
1738.4727   1.66630e+14
1739.2992   1.70778e+14
1740.1261  -5.05066e+14
1740.9532   1.70668e+14
1741.7806   1.68997e+14
1742.6083   1.72968e+14
1743.4360  -1.26129e+15
1744.2642   1.74479e+14
1745.0925   1.71471e+14
1745.9211   1.72172e+14
1746.7501  -1.25997e+15
1747.5791   1.72438e+14
1748.4086   1.19623e+14
1749.2383   1.74257e+14
1750.0681   1.76183e+14
1750.8983   1.75578e+14
1751.7286   2.34393e+14
1752.5593  -3.34098e+14
1753.3904   1.74959e+14
1754.2214   1.76073e+14
1755.0530   1.73752e+14
1755.8846   1.58129e+13
1756.7167   1.62314e+14
1757.5488  -2.84172e+15
1758.3813   1.77967e+14
1759.2141  -3.10104e+12
1760.0471   1.77388e+14
1760.8804   1.77133e+14
1761.7139   2.54332e+14
1762.5477  -1.05573e+14
1763.3817   1.61091e+14
1764.2161   5.17877e+13
1765.0508   5.14989e+14
1765.8855   1.89043e+13
1766.7206   3.32942e+14
1767.5560  -1.29182e+15
1768.3917  -7.88430e+14
1769.2277   1.51868e+13
1770.0637  -6.06231e+15
1770.9003   2.60572e+13
1771.7369  -1.89397e+13
1772.5741   6.79336e+13
1934.3800   4.14756e+12
1934.4974   6.87669e+11
1934.6147   4.70535e+11
1934.7322   9.26329e+10
1934.8496   2.86520e+11
1934.9669   3.21708e+11
1935.0842  -1.14799e+12
1935.2015   4.59353e+11
1935.3188  -1.00902e+11
1935.4362   3.46514e+12
1935.5533   9.49633e+12
1935.6707   8.83458e+13
1935.7878   1.28315e+14
1935.9049   1.25306e+14
1936.0221   1.27566e+14
1936.1393   1.27858e+14
1936.2563   1.28494e+14
1936.3735   1.29771e+14
1936.4905   1.33520e+14
1936.6075   1.49534e+14
1936.7246   1.38114e+14
1936.8417   1.53542e+14
1936.9587   1.42191e+14
1937.0756   1.34961e+14
1937.1926   1.27197e+14
1937.3094   1.26476e+14
1937.4264   1.23893e+14
1937.5433   1.25714e+14
1937.6602   1.27243e+14
1937.7770   1.33997e+14
1937.8939   1.30230e+14
1938.0107   1.32429e+14
1938.1274   1.30434e+14
1938.2441   1.25342e+14
1938.3610   1.25592e+14
1938.4777   1.26391e+14
1938.5944   1.30973e+14
1938.7111   1.33118e+14
1938.8278   1.25986e+14
1938.9445   1.22115e+14
1939.0610   1.18501e+14
1939.1776   1.23442e+14
1939.2942   1.27468e+14
1939.4108   1.28216e+14
1939.5273   1.27348e+14
1939.6438   1.33716e+14
1939.7603   1.30225e+14
1939.8768   1.22689e+14
1939.9933   1.21744e+14
1940.1097   1.24456e+14
1940.2261   1.24787e+14
1940.3425   1.24499e+14
1940.4589   1.23090e+14
1940.5752   1.24315e+14
1940.6917   1.24028e+14
1940.8079   1.22637e+14
1940.9242   1.26312e+14
1941.0404   1.26363e+14
1941.1567   1.24230e+14
1941.2729   1.08546e+14
1941.3892   1.24008e+14
1941.5052   1.23390e+14
1941.6215   1.25507e+14
1941.7375   1.24765e+14
1941.8538   1.18916e+14
1941.9698   1.22519e+14
1942.0859   1.22862e+14
1942.2020   1.22297e+14
1942.3180   1.21918e+14
1942.4341   1.26371e+14
1942.5500   1.21709e+14
1942.6660   1.20926e+14
1942.7820   1.20050e+14
1942.8979   1.16920e+14
1943.0139   1.14066e+14
1943.1298   1.02696e+14
1943.2456  -7.68736e+10
1943.3615   1.16500e+14
1943.4773   1.15141e+14
1943.5931   1.14798e+14
1943.7089   1.06171e+14
1943.8247   1.03428e+14
1943.9404   1.13476e+14
1944.0562   1.15942e+14
1944.1719   1.15570e+14
1944.2876   1.16168e+14
1944.4032  -5.09471e+09
1944.5189   1.13741e+14
1944.6345   9.74879e+13
1944.7501   1.19657e+14
1944.8657   9.32141e+13
1944.9813   1.13034e+14
1945.0968   5.97480e+13
1945.2123   1.14123e+14
1945.3278   1.10715e+14
1945.4434   1.19406e+14
1945.5588   1.11288e+14
1945.6742  -1.05582e+10
1945.7896   9.36558e+13
1945.9050   1.09176e+14
1946.0204   1.12699e+14
1946.1357   1.16626e+14
1946.2511   1.16916e+14
1946.3665   1.14032e+14
1946.4817   1.20215e+14
1946.5970   1.18249e+14
1946.7122   1.18722e+14
1946.8275   1.17946e+14
1946.9427   1.22658e+14
1947.0579   1.21173e+14
1947.1730   1.20548e+14
1947.2882   4.63555e+13
1947.4033   1.18493e+14
1947.5184   1.20425e+14
1947.6335   1.20247e+14
1947.7487   1.20619e+14
1947.8636   1.18826e+14
1947.9788   1.20487e+14
1948.0938   1.21823e+14
1948.2086   1.75522e+14
1948.3236   1.53707e+14
1948.4385   1.21253e+14
1948.5535   1.37065e+14
1948.6685   1.38561e+14
1948.7832   1.26285e+14
1948.8981   1.14833e+14
1949.0129   1.17625e+14
1949.1278   1.15268e+14
1949.2426   1.20991e+14
1949.3573   1.21657e+14
1949.4720   1.21310e+14
1949.5868   1.19465e+14
1949.7015   1.00895e+14
1949.8162   1.05480e+14
1949.9309   1.14456e+14
1950.0455   1.21086e+14
1950.1602  -8.07078e+10
1950.2748   1.21955e+14
1950.3894   1.21555e+14
1950.5039   1.21476e+14
1950.6185   1.21207e+14
1950.7330   1.21231e+14
1950.8475   1.19566e+14
1950.9620   9.09975e+13
1951.0765   1.41505e+14
1951.1909   9.66387e+13
1951.3053   1.21794e+14
1951.4197   1.50206e+14
1951.5341   1.57292e+14
1951.6486   1.56996e+14
1951.7628   1.48949e+14
1951.8771   1.22086e+14
1951.9915   1.22199e+14
1952.1057   1.24711e+14
1952.2200   1.22585e+14
1952.3342   1.22746e+14
1952.4484   1.22558e+14
1952.5626   1.17105e+14
1952.6768   1.21807e+14
1952.7910   1.22375e+14
1952.9052   1.17735e+14
1953.0192   1.22494e+14
1953.1333   1.23183e+14
1953.2474   1.26575e+14
1953.3615   1.28318e+14
1953.4753   1.24024e+14
1953.5894   1.22130e+14
1953.7034   1.19699e+14
1953.8174   1.17900e+14
1953.9313   1.02405e+14
1954.0453   1.22006e+14
1954.1592   1.22811e+14
1954.2731   1.23570e+14
1954.3868   1.23605e+14
1954.5009   1.20287e+14
1954.6146   1.24260e+14
1954.7284   1.21803e+14
1954.8422   1.21910e+14
1954.9559   1.21747e+14
1955.0697   1.21930e+14
1955.1833   1.21973e+14
1955.2971   1.21383e+14
1955.4108   1.23194e+14
1955.5244   1.23556e+14
1955.6379   1.22506e+14
1955.7517   1.17154e+14
1955.8654   1.19808e+14
1955.9788   1.22222e+14
1956.0924   1.21242e+14
1956.2059   1.23202e+14
1956.3195   1.05041e+14
1956.4329   1.22313e+14
1956.5464   1.06256e+14
1956.6598   1.15620e+14
1956.7732   1.21305e+14
1956.8867   1.21815e+14
1957.0000   1.09327e+14
1957.1134   1.21887e+14
1957.2267   1.12335e+14
1957.3401   1.22082e+14
1957.4534   1.21420e+14
1957.5667   1.20879e+14
1957.6799   1.08221e+14
1957.7932   1.18322e+14
1957.9064   1.21389e+14
1958.0197   1.21955e+14
1958.1328   1.24258e+14
1958.2458   1.21492e+14
1958.3590   1.21798e+14
1958.4722   1.22121e+14
1958.5853   1.20111e+14
1958.6982   1.18917e+14
1958.8114   1.18030e+14
1958.9244   1.19829e+14
1959.0374   3.28731e+13
1959.1504   1.21775e+14
1959.2634   1.21622e+14
1959.3763   1.24527e+14
1959.4893   1.15993e+14
1959.6022   1.20183e+14
1959.7151  -7.69554e+11
1959.8279   1.16985e+14
1959.9408   1.18213e+14
1960.0536   1.20563e+14
1960.1664   1.18139e+14
1960.2792   1.02634e+14
1960.3920   1.19272e+14
1960.5048   1.14771e+14
1960.6174   3.23519e+13
1960.7301   1.18072e+14
1960.8428   1.20721e+14
1960.9554   1.05170e+14
1961.0681   1.22654e+14
1961.1807   1.20550e+14
1961.2933   1.20322e+14
1961.4059   1.19873e+14
1961.5184   1.18804e+14
1961.6310   1.19852e+14
1961.7435   1.14326e+14
1961.8560   1.16191e+14
1961.9685   1.11393e+14
1962.0809   1.21112e+14
1962.1934   1.20737e+14
1962.3058   1.18556e+14
1962.4181   1.23757e+14
1962.5305   1.24138e+14
1962.6429   1.16892e+14
1962.7552   1.15146e+14
1962.8676   4.02003e+10
1962.9799  -7.17043e+10
1963.0920  -3.76869e+11
1963.2043  -7.42279e+10
1963.3165   1.01293e+14
1963.4287   2.30829e+14
1963.5409   1.32386e+14
1963.6531   2.50570e+12
1963.7653   1.34157e+14
1963.8773   1.09813e+14
1963.9894   1.10846e+14
1964.1014   1.13577e+14
1964.2136   1.18315e+14
1964.3256   1.01785e+14
1964.4376   1.02578e+14
1964.5496   1.18860e+14
1964.6616   1.04164e+14
1964.7736   1.20625e+14
1964.8855   1.18468e+14
1964.9974   1.17953e+14
1965.1093   1.17941e+14
1965.2211   1.18347e+14
1965.3330   1.18415e+14
1965.4448   1.05501e+14
1965.5566   1.18085e+14
1965.6685   1.18006e+14
1965.7802   1.15637e+14
1965.8918   1.18314e+14
1966.0037   1.18229e+14
1966.1154   1.18021e+14
1966.2271   1.17658e+14
1966.3387   1.18809e+14
1966.4504   1.17737e+14
1966.5620   1.17428e+14
1966.6736   1.15435e+14
1966.7852   1.17417e+14
1966.8967   1.17131e+14
1967.0083   1.18815e+14
1967.1198   1.17613e+14
1967.2313   1.19357e+14
1967.3427   1.17371e+14
1967.4542   1.08388e+14
1967.5656   1.16706e+14
1967.6771   1.18035e+14
1967.7885   1.19039e+14
1967.8998   1.16637e+14
1968.0112   1.16793e+14
1968.1226   1.16813e+14
1968.2338   1.16567e+14
1968.3451   1.14193e+14
1968.4564   1.12693e+14
1968.5676   1.16527e+14
1968.6788   1.13865e+14
1968.7900   1.10280e+14
1968.9012   1.15346e+14
1969.0125   1.13834e+14
1969.1237   1.14925e+14
1969.2347   1.15893e+14
1969.3458   1.06090e+14
1969.4569   1.18134e+14
1969.5679   1.15781e+14
1969.6790   1.15589e+14
1969.7900   1.14614e+14
1969.9010   1.01187e+14
1970.0120   1.15147e+14
1970.1229   1.15357e+14
1970.2339   1.15432e+14
1970.3448   1.15459e+14
1970.4557   1.11897e+14
1970.5665   1.18924e+14
1970.6774   1.22756e+14
1970.7882   1.14098e+14
1970.8990   1.03374e+14
1971.0098   1.16978e+14
1971.1206   3.91597e+12
1971.2314   1.12061e+14
1971.3420   1.14005e+14
1971.4528   1.14723e+14
1971.5635   1.10207e+14
1971.6742   1.14820e+14
1971.7848   1.14549e+14
1971.8954   1.15442e+14
1972.0060   1.13650e+14
1972.1166   1.13684e+14
1972.2272   1.13117e+14
1972.3376   1.10767e+14
1972.4482   1.10680e+14
1972.5587   1.09425e+14
1972.6692   9.35069e+13
1972.7797   8.84908e+13
1972.8901   1.00725e+14
1973.0005   1.08997e+14
1973.1108   1.08263e+14
1973.2213   1.13780e+14
1973.3317   1.09576e+14
1973.4420   1.12600e+14
1973.5522   1.13080e+14
1973.6626   1.11999e+14
1973.7729   1.07429e+14
1973.8831   9.56627e+13
1973.9934   1.07330e+14
1974.1036   1.10692e+14
1974.2137   5.72705e+13
1974.3239   1.12813e+14
1974.4341   1.13230e+14
1974.5442   1.14304e+14
1974.6543   1.14129e+14
1974.7644   1.14005e+14
1974.8745   1.12876e+14
1974.9845   9.97125e+13
1975.0946   1.11123e+14
1975.2046   1.11311e+14
1975.3145  -6.49425e+10
1975.4246   1.13842e+14
1975.5344   1.12520e+14
1975.6444   1.32237e+11
1975.7543   1.12092e+14
1975.8641   1.13913e+14
1975.9740   1.12434e+14
1976.0837   1.12618e+14
1976.1937   1.12182e+14
1976.3035   1.12351e+14
1976.4132   1.11753e+14
1976.5229   1.11561e+14
1976.6327   1.11434e+14
1976.7424   1.10803e+14
1976.8521   1.11396e+14
1976.9618   1.11730e+14
1977.0714   1.11681e+14
1977.1812   1.11399e+14
1977.2906   1.11486e+14
1977.4003   1.13311e+14
1977.5098   1.12219e+14
1977.6194   1.11418e+14
1977.7289   1.17522e+14
1977.8384   1.05802e+14
1977.9479   1.13614e+14
1978.0574   9.46352e+13
1978.1667   8.23614e+13
1978.2762   9.52652e+13
1978.3856   1.06934e+14
1978.4950   1.12213e+14
1978.6044   1.12282e+14
1978.7137   1.10320e+14
1978.8230   1.10685e+14
1978.9323   9.88471e+13
1979.0416  -6.49939e+10
1979.1509   1.10720e+14
1979.2601   1.10643e+14
1979.3693   1.10503e+14
1979.4785   1.07782e+14
1979.5876   1.03984e+14
1979.6968   9.96229e+13
1979.8060   1.09035e+14
1979.9150   1.05752e+14
1980.0242   1.10977e+14
1980.1332   1.18412e+14
1980.2423   3.91824e+14
1980.3513   1.21178e+14
1980.4603   1.10620e+14
1980.5693   1.10244e+14
1980.6783   1.10138e+14
1980.7872   1.09726e+14
1980.8961   1.11535e+14
1981.0050   1.09825e+14
1981.1139   1.09962e+14
1981.2228   1.06749e+14
1981.3315   1.03449e+14
1981.4406   1.10222e+14
1981.5493   1.09902e+14
1981.6580   1.09839e+14
1981.7668   1.09330e+14
1981.8755   1.01047e+14
1981.9843   9.61075e+13
1982.0929   9.43957e+13
1982.2017   1.09529e+14
1982.3103   1.08905e+14
1982.4189   1.09290e+14
1982.5275   1.09439e+14
1982.6361   1.09759e+14
1982.7448   1.05906e+14
1982.8531   1.09398e+14
1982.9618   1.09459e+14
1983.0703   1.12658e+14
1983.1788   1.09066e+14
1983.2872   1.08985e+14
1983.3958   1.09370e+14
1983.5042   1.04400e+14
1983.6125   1.10004e+14
1983.7209   1.06976e+14
1983.8293   9.79054e+13
1983.9376   1.09360e+14
1984.0459   1.09441e+14
1984.1542   1.11372e+14
1984.2625   1.09530e+14
1984.3708   1.10738e+14
1984.4790   1.09350e+14
1984.5872   1.10022e+14
1984.6954   1.25360e+14
1984.8036   1.08850e+14
1984.9117   1.08594e+14
1985.0199   1.06591e+14
1985.1281   1.01632e+14
1985.2361   1.03886e+14
1985.3442   1.08151e+14
1985.4521   1.08332e+14
1985.5603   1.11555e+14
1985.6683   1.06306e+14
1985.7762   9.41864e+13
1985.8842   9.88227e+13
1985.9922   1.07364e+14
1986.1001   1.07650e+14
1986.2080   1.07264e+14
1986.3159   1.09050e+14
1986.4238   1.08338e+14
1986.5316   1.06306e+14
1986.6395   9.49415e+13
1986.7473   9.34677e+13
1986.8550   1.05395e+14
1986.9628   1.09009e+14
1987.0706   1.14476e+14
1987.1783   1.09173e+14
1987.2860   7.41399e+11
1987.3936   1.11667e+14
1987.5013   1.09703e+14
1987.6089   1.09229e+14
1987.7166   1.00788e+14
1987.8242   9.82501e+13
1987.9316   1.04312e+14
1988.0393   1.09051e+14
1988.1469   1.09187e+14
1988.2543   1.09208e+14
1988.3618   1.09445e+14
1988.4694   1.09256e+14
1988.5768   1.08607e+14
1988.6842   1.08110e+14
1988.7916  -6.33515e+10
1988.8990   9.63917e+13
1989.0063   1.09451e+14
1989.1136   1.11866e+14
1989.2209   1.38495e+14
1989.3282   1.12006e+14
1989.4355   1.09223e+14
1989.5428   1.09038e+14
1989.6501   1.21558e+14
1989.7573   1.09193e+14
1989.8646   1.09295e+14
1989.9717   1.08921e+14
1990.0789   1.09332e+14
1990.1860   1.09688e+14
1990.2932   9.54203e+13
1990.4003   1.09497e+14
1990.5073   3.60874e+11
1990.6144   1.08881e+14
1990.7214   1.09360e+14
1990.8284   1.09189e+14
1990.9354   1.09802e+14
1991.0424   9.85120e+13
1991.1494   1.09663e+14
1991.2563   1.09367e+14
1991.3632   7.97168e+13
1991.4701   1.08843e+14
1991.5770   1.09018e+14
1991.6838   1.00487e+14
1991.7906   1.10834e+14
1991.8975   1.07989e+14
1992.0042   1.09226e+14
1992.1110   1.05518e+14
1992.2178   1.02793e+14
1992.3245   1.06801e+14
1992.4312   1.08242e+14
1992.5378   1.00241e+11
1992.6445   1.06782e+14
1992.7512   1.08045e+14
1992.8578   1.06495e+14
1992.9644   1.08141e+14
1993.0710   1.06520e+14
1993.1775   1.07739e+14
1993.2841   1.01898e+14
1993.3906   9.09484e+13
1993.4971   1.02566e+14
1993.6036   1.07835e+14
1993.7100   1.07285e+14
1993.8165   9.81286e+13
1993.9229   9.90859e+13
1994.0293   1.19620e+14
1994.1356   1.09510e+14
1994.2419   1.09462e+14
1994.3483   1.10628e+14
1994.4546   1.08589e+14
1994.5609   1.08712e+14
1994.6672   1.08810e+14
1994.7734  -7.13046e+11
1994.8798   1.09511e+14
1994.9858   1.09562e+14
1995.0920   1.08869e+14
1995.1982   9.58452e+13
1995.3044   1.08514e+14
1995.4105   1.08239e+14
1995.5166   1.07926e+14
1995.6227   1.10106e+14
1995.7288   1.14087e+14
1995.8348   1.09931e+14
1995.9408   1.06099e+14
1996.0468   1.12672e+14
1996.1528  -1.33711e+13
1996.2587   1.10381e+14
1996.3647   6.85102e+13
1996.4706  -6.34794e+10
1996.5765   1.03950e+14
1996.6823   1.03077e+14
1996.7882   1.06824e+14
1996.8940   1.09142e+14
1996.9998   1.06019e+14
1997.1056   1.09330e+14
1997.2114   1.10225e+14
1997.3173   1.10159e+14
1997.4229   1.09443e+14
1997.5286   1.08200e+14
1997.6343   1.07820e+14
1997.7399   1.07188e+14
1997.8456   9.87502e+13
1997.9512   1.05575e+14
1998.0568   9.58281e+13
1998.1624   1.10141e+14
1998.2679   1.10579e+14
1998.3735   1.18907e+14
1998.4790   1.09833e+14
1998.5845   1.10171e+14
1998.6899   1.10568e+14
1998.7955   1.11069e+14
1998.9009   1.10678e+14
1999.0063   1.10528e+14
1999.1117   1.11018e+14
1999.2170   1.10850e+14
1999.3225   1.10712e+14
1999.4279   1.11371e+14
1999.5331   1.10874e+14
1999.6384   8.84923e+13
1999.7437   1.10422e+14
1999.8489   1.20571e+14
1999.9542   1.13138e+14
2000.0594   1.10389e+14
2000.1646   1.10854e+14
2000.2697   1.10677e+14
2000.3749   1.10589e+14
2000.4800   1.11338e+14
2000.5851   1.08393e+14
2000.6902   1.09727e+14
2000.7953   1.10496e+14
2000.9003   9.22422e+13
2001.0052   1.10068e+14
2001.1104   1.11187e+14
2001.2153   1.07387e+14
2001.3203   1.07334e+14
2001.4252   1.08934e+14
2001.5302   1.10544e+14
2001.6350   1.10720e+14
2001.7399   1.10447e+14
2001.8448   1.10803e+14
2001.9496   1.10928e+14
2002.0544   1.06816e+14
2002.1592   1.10973e+14
2002.2640   1.10749e+14
2002.3688   1.10898e+14
2002.4735   1.11106e+14
2002.5782   1.10123e+14
2002.6829   1.10532e+14
2002.7876   9.67813e+13
2002.8922   1.02723e+14
2002.9968   1.07239e+14
2003.1014   1.10405e+14
2003.2061   1.10365e+14
2003.3105   1.10703e+14
2003.4152   1.08410e+14
2003.5197   1.12098e+14
2003.6241   1.11644e+14
2003.7288   1.12609e+14
2003.8331   1.10809e+14
2003.9376   1.10875e+14
2004.0420   1.10171e+14
2004.1464   1.10648e+14
2004.2509   1.10449e+14
2004.3551   9.78195e+13
2004.4595   1.10560e+14
2004.5638   1.09892e+14
2004.6681   1.08215e+14
2004.7725   1.09341e+14
2004.8766   1.10708e+14
2004.9810   1.10802e+14
2005.0851   1.11116e+14
2005.1893   1.11593e+14
2005.2935   1.11116e+14
2005.3976   1.09541e+14
2005.5017   1.07694e+14
2005.6058  -6.66496e+10
2005.7100   1.04921e+14
2005.8140   1.08011e+14
2005.9180   1.04567e+14
2006.0221   9.82791e+13
2006.1261   7.93290e+13
2006.2301   1.10736e+14
2006.3340   1.10736e+14
2006.4380   1.11029e+14
2006.5419   1.10914e+14
2006.6458   1.10920e+14
2006.7498   1.11053e+14
2006.8535   1.11006e+14
2006.9574   1.10540e+14
2007.0612   9.84629e+13
2007.1650   1.10643e+14
2007.2688   1.10174e+14
2007.3726   1.10371e+14
2007.4763   1.09863e+14
2007.5800   1.09216e+14
2007.6837   1.09401e+14
2007.7874   9.19922e+13
2007.8910   1.12683e+14
2007.9948   1.14048e+14
2008.0983   1.08928e+14
2008.2019   1.10902e+14
2008.3054   1.08852e+14
2008.4091   1.00142e+14
2008.5125   1.17360e+14
2008.6160   1.10940e+14
2008.7195   1.10982e+14
2008.8230   3.40565e+15
2008.9264   1.13505e+14
2009.0298   9.40347e+13
2009.1333   1.10922e+14
2009.2366   1.10943e+14
2009.3400   1.10693e+14
2009.4434   8.52934e+13
2009.5468   1.09807e+14
2009.6500   1.06681e+14
2009.7533   1.08608e+14
2009.8564   1.09712e+14
2009.9598   1.10590e+14
2010.0630   1.10871e+14
2010.1663   1.11060e+14
2010.2693   1.10816e+14
2010.3726   1.09472e+14
2010.4756   1.02561e+14
2010.5789  -3.61354e+09
2010.6818   2.22449e+14
2010.7849   1.10741e+14
2010.8879   1.12516e+14
2010.9910   1.10562e+14
2011.0940   1.11572e+14
2011.1970   1.10128e+14
2011.3000   1.09467e+14
2011.4030   1.10067e+14
2011.5059   1.10468e+14
2011.6088   1.15877e+14
2011.7115   1.13583e+14
2011.8145   1.10763e+14
2011.9174   1.10571e+14
2012.0201   1.08966e+14
2012.1230   1.11131e+14
2012.2258   1.10705e+14
2012.3285   1.10772e+14
2012.4313   1.14119e+14
2012.5341   1.10428e+14
2012.6367  -5.11536e+09
2012.7394   1.12896e+14
2012.8420   1.11037e+14
2012.9447   1.10783e+14
2013.0472   1.09986e+14
2013.1499   1.10918e+14
2013.2524   1.09835e+14
2013.3550   1.10520e+14
2013.4575   1.10350e+14
2013.5601   1.10769e+14
2013.6625   1.10448e+14
2013.7650   1.10125e+14
2013.8676   1.10263e+14
2013.9698   1.10317e+14
2014.0723   1.11884e+14
2014.1747  -9.57861e+10
2014.2771   1.24843e+14
2014.3794   1.22671e+14
2014.4817   1.12724e+14
2014.5840   1.10799e+14
2014.6863   1.09608e+14
2014.7886   1.03009e+14
2014.8907   1.07593e+14
2014.9930   1.10213e+14
2015.0953   1.09550e+14
2015.1974   1.13849e+14
2015.2996   1.10125e+14
2015.4017   1.10090e+14
2015.5039   1.40929e+14
2015.6060   1.09107e+14
2015.7080   1.09641e+14
2015.8101   1.09793e+14
2015.9121   1.09807e+14
2016.0142   1.07932e+14
2016.1161   1.10451e+14
2016.2181   1.09653e+14
2016.3201   1.09376e+14
2016.4220   1.05241e+14
2016.5239   1.09934e+14
2016.6259   1.17249e+14
2016.7277   1.12919e+14
2016.8295   1.12838e+14
2016.9313   1.07360e+14
2017.0332   1.13660e+14
2017.1349   1.08721e+14
2017.2367   1.12026e+14
2017.3385   1.08333e+14
2017.4402   1.06732e+14
2017.5419   1.09475e+14
2017.6436   1.08389e+14
2017.7452   1.09101e+14
2017.8469   7.22050e+13
2017.9485   1.07796e+14
2018.0500   1.08254e+14
2018.1517   1.11909e+14
2018.2532   4.29500e+13
2018.3549   1.12381e+14
2018.4563   1.09272e+14
2018.5577   1.26446e+14
2018.6593   1.09112e+14
2018.7607   1.21180e+14
2018.8621   1.26277e+14
2018.9636   1.09117e+14
2019.0649   1.08937e+14
2019.1663   1.00338e+14
2019.2677   1.10940e+14
2019.3690   1.09040e+14
2019.4703   1.15649e+14
2019.5717   1.22753e+14
2019.6729   1.13334e+14
2019.7740   1.06960e+14
2019.8752   9.24609e+13
2019.9764   8.40286e+13
2020.0778   1.09049e+14
2020.1790   5.24129e+13
2020.2800   8.88208e+13
2020.3812   1.09239e+14
2020.4823   1.06089e+14
2020.5833   1.09788e+14
2020.6844   1.09448e+14
2020.7854   1.04853e+14
2020.8865  -7.48840e+10
2020.9875   1.05071e+14
2021.0884   1.10858e+14
2021.1895   1.08723e+14
2021.2903   1.07164e+14
2021.3914   1.07416e+14
2021.4921   1.04598e+14
2021.5930   1.08013e+14
2021.6938   1.09110e+14
2021.7947   1.06348e+14
2021.8955   5.49318e+13
2021.9963   1.08346e+14
2022.0970   1.08466e+14
2022.1978   1.08361e+14
2022.2986   4.08366e+13
2022.3993   1.08331e+14
2022.5000   1.08509e+14
2022.6006   1.08552e+14
2022.7013   1.08976e+14
2022.8019   1.15485e+14
2022.9025   1.12894e+14
2023.0031   1.08239e+14
2023.1036   1.08071e+14
2023.2042   1.07988e+14
2023.3047   1.07162e+14
2023.4052   1.04874e+14
2023.5057   1.08209e+14
2023.6061   1.08325e+14
2023.7065   1.78002e+14
2023.8070  -5.33335e+09
2023.9073   1.08284e+14
2024.0078   1.07314e+14
2024.1082   1.09014e+14
2024.2085   1.09017e+14
2024.3088   1.09215e+14
2024.4091   1.05687e+14
2024.5093   1.05702e+14
2024.6096   1.04252e+14
2024.7098   1.07774e+14
2024.8101   1.14078e+14
2024.9102   1.06082e+14
2025.0104   1.08446e+14
2025.1105   1.08033e+14
2025.2107   1.08457e+14
2025.3108   1.09299e+14
2025.4109   1.06317e+14
2025.5109   1.09624e+14
2025.6110   1.10540e+14
2025.7111   1.07868e+14
2025.8110   1.07835e+14
2025.9110   1.02700e+14
2026.0109   1.07525e+14
2026.1108   1.09454e+14
2026.2108   1.02738e+14
2026.3107   1.07977e+14
2026.4106   1.07728e+14
2026.5104   1.07724e+14
2026.6104   9.85721e+13
2026.7101   1.07571e+14
2026.8099   1.11020e+14
2026.9095   1.11223e+14
2027.0094   1.06908e+14
2027.1091   1.17412e+14
2027.2087  -7.78165e+10
2027.3085   1.10317e+14
2027.4082   1.06399e+14
2027.5079   1.86584e+14
2027.6075   1.80561e+14
2027.7072   1.83671e+14
2027.8066   1.61500e+14
2027.9062   1.44013e+14
2028.0059   1.16004e+14
2028.1053   1.16261e+14
2028.2048   1.07738e+14
2028.3043   1.07776e+14
2028.4038   1.08973e+14
2028.5032   1.11398e+14
2028.6025   1.03140e+14
2028.7020   1.01629e+14
2028.8014   1.04555e+14
2028.9008   1.06113e+14
2029.0001   1.32141e+14
2029.0994   1.01223e+14
2029.1987   1.05903e+14
2029.2980   1.07329e+14
2029.3973   1.07433e+14
2029.4965   1.03758e+14
2029.5957   1.07485e+14
2029.6949   1.07153e+14
2029.7941   1.08526e+14
2029.8932   9.37435e+13
2029.9924   1.06139e+14
2030.0916   1.01246e+14
2030.1906   9.94724e+13
2030.2896   7.17812e+13
2030.3887   1.08091e+14
2030.4877   1.02628e+14
2030.5867   1.03798e+14
2030.6857   8.52353e+13
2030.7847   1.06421e+14
2030.8835   1.07480e+14
2030.9825   1.07646e+14
2031.0814   6.93180e+13
2031.1803   1.17353e+14
2031.2792   1.07791e+14
2031.3781   1.17179e+14
2031.4768  -8.56218e+10
2031.5756   1.07706e+14
2031.6744   1.12651e+14
2031.7732   1.07258e+14
2031.8719   1.03355e+14
2031.9706   1.06765e+14
2032.0693   1.11379e+14
2032.1680   1.08085e+14
2032.2666   1.07316e+14
2032.3654   1.07878e+14
2032.4639   1.10981e+14
2032.5625   1.07462e+14
2032.6611   1.08123e+14
2032.7596   1.07209e+14
2032.8582   8.52311e+13
2032.9565  -2.66755e+13
2033.0551   1.07613e+14
2033.1536   1.10826e+14
2033.2520   1.14642e+14
2033.3505   1.19214e+14
2033.4489   1.25540e+14
2033.5472   1.11746e+14
2033.6456  -9.63912e+10
2033.7440   1.18544e+14
2033.8423   1.15278e+14
2033.9406   1.04334e+14
2034.0389   1.16529e+14
2034.1371   1.58728e+13
2034.2354   1.09053e+14
2034.3336   1.07328e+14
2034.4318   1.07403e+14
2034.5300   1.06771e+14
2034.6281   1.08067e+14
2034.7262   1.06941e+14
2034.8243   1.03515e+14
2034.9225   9.76775e+13
2035.0205   1.05376e+14
2035.1187   1.06500e+14
2035.2166   1.10254e+14
2035.3146   1.08114e+14
2035.4126   1.06476e+14
2035.5106   1.05594e+14
2035.6085   1.05321e+14
2035.7065   1.06297e+14
2035.8044   1.09880e+14
2035.9022   1.07205e+14
2036.0001   1.06777e+14
2036.0980   1.06646e+14
2036.1958   1.02884e+14
2036.2936   1.00443e+14
2036.3914   1.08465e+14
2036.4891   1.09134e+14
2036.5869   1.07053e+14
2036.6846   1.06325e+14
2036.7823   1.03188e+14
2036.8800   1.03265e+14
2036.9775   1.06163e+14
2037.0753   1.06881e+14
2037.1729   1.07036e+14
2037.2705   1.06823e+14
2037.3680   1.07923e+14
2037.4656   1.06793e+14
2037.5631   8.58155e+13
2037.6606   1.08195e+14
2037.7581   2.29401e+13
2037.8556   1.06338e+14
2037.9531   1.07130e+14
2038.0505   1.09090e+14
2038.1479   1.07243e+14
2038.2452   1.04178e+14
2038.3427   9.91651e+13
2038.4399   1.00681e+14
2038.5374   1.05163e+14
2038.6346   1.07505e+14
2038.7319   1.02264e+14
2038.8292   1.02107e+14
2038.9264   1.06666e+14
2039.0236  -6.22248e+09
2039.1208   1.06742e+14
2039.2180   1.06722e+14
2039.3152   1.06351e+14
2039.4124   9.85906e+13
2039.5094   1.06614e+14
2039.6064   1.08933e+14
2039.7036   1.07479e+14
2039.8007   1.07440e+14
2039.8977   1.05484e+14
2039.9948   1.05995e+14
2040.0917   1.04150e+14
2040.1887   1.08828e+14
2040.2856   1.06750e+14
2040.3826   9.97214e+13
2040.4795   3.80617e+11
2040.5764   1.07379e+14
2040.6732   8.30245e+13
2040.7701   1.05806e+14
2040.8669   1.03973e+14
2040.9637   1.06148e+14
2041.0605   1.05187e+14
2041.1573   1.03623e+14
2041.2540   1.06155e+14
2041.3508   1.06536e+14
2041.4475   1.06590e+14
2041.5441   1.06424e+14
2041.6407   1.05135e+14
2041.7374   8.70968e+13
2041.8341   1.06090e+14
2041.9307   1.05816e+14
2042.0272   1.08205e+14
2042.1238   1.08370e+14
2042.2203   1.09722e+14
2042.3169   1.01024e+14
2042.4133   9.80279e+13
2042.5098   9.50887e+13
2042.6063   8.30753e+13
2042.7028   1.04272e+13
2042.7991  -2.66687e+12
2042.8955   1.25134e+12
2042.9919   3.68277e+11
2043.0883   2.70483e+11
2043.1846   2.25604e+11
2043.2809   2.13425e+11
2043.3772  -1.52084e+13
2043.4734   2.99261e+11
2043.5697   4.16117e+11
2043.6659   1.07064e+12
2259.2581   3.05333e+12
2259.3928  -4.60006e+12
2259.5278  -2.40932e+10
2259.6626  -2.39493e+10
2259.7976   1.26174e+12
2259.9324   1.07172e+12
2260.0671   1.19336e+12
2260.2019   1.94731e+12
2260.3369   1.84510e+12
2260.4714   1.24998e+13
2260.6062   2.06693e+13
2260.7410   6.04888e+13
2260.8755   6.05678e+13
2261.0103   5.58924e+13
2261.1450   6.08517e+13
2261.2795   5.84138e+13
2261.4141   5.81154e+13
2261.5486   6.11491e+13
2261.6833   6.17381e+13
2261.8179   6.19528e+13
2261.9524   6.21372e+13
2262.0869   6.11156e+13
2262.2212   6.24214e+13
2262.3557   5.99079e+13
2262.4900   5.81375e+13
2262.6245   3.37706e+13
2262.7588   6.21867e+13
2262.8933  -2.06970e+10
2263.0276   5.88979e+13
2263.1619   5.98419e+13
2263.2961   5.14000e+13
2263.4304   6.39032e+13
2263.5647   6.54464e+13
2263.6987   6.43183e+13
2263.8330   6.43512e+13
2263.9673   6.51614e+13
2264.1013   6.48305e+13
2264.2354   6.47859e+13
2264.3694   6.51129e+13
2264.5037   6.52817e+13
2264.6377   1.29238e+14
2264.7717  -1.06813e+09
2264.9058   6.46763e+13
2265.0398   6.54278e+13
2265.1736   6.56686e+13
2265.3076   6.57267e+13
2265.4417   6.37741e+13
2265.5754   6.25659e+13
2265.7092   7.60656e+13
2265.8433   6.34713e+13
2265.9771   9.66455e+13
2266.1108   1.77908e+13
2266.2446   6.65975e+13
2266.3784   6.64549e+13
2266.5122  -1.11204e+09
2266.6460   6.71441e+13
2266.7795   6.70347e+13
2266.9131   6.32648e+13
2267.0469   5.43387e+13
2267.1804   6.38997e+13
2267.3142   6.71333e+13
2267.4478   7.01750e+13
2267.5813   6.77233e+13
2267.7148   6.75913e+13
2267.8484   6.81816e+13
2267.9817   6.80378e+13
2268.1152   3.42442e+13
2268.2488   6.82041e+13
2268.3821   6.85570e+13
2268.5156   6.55403e+13
2268.6489   6.86121e+13
2268.7825   6.88540e+13
2268.9158   6.85953e+13
2269.0491   6.88865e+13
2269.1824   6.92565e+13
2269.3157   6.93709e+13
2269.4490   6.83077e+13
2269.5820   6.92714e+13
2269.7153   6.91380e+13
2269.8484   6.94475e+13
2269.9817   6.96862e+13
2270.1147   6.99192e+13
2270.2478   6.98091e+13
2270.3811   6.99771e+13
2270.5142   7.00463e+13
2270.6472   7.01219e+13
2270.7803   6.99376e+13
2270.9131   7.01929e+13
2271.0461   7.12284e+13
2271.1792   6.94222e+13
2271.3120   6.76623e+13
2271.4451   6.88874e+13
2271.5779   7.04141e+13
2271.7107   7.06107e+13
2271.8435   7.07190e+13
2271.9763   7.06173e+13
2272.1091   7.08691e+13
2272.2419   7.09876e+13
2272.3748   7.00872e+13
2272.5076   7.10171e+13
2272.6401   5.93406e+13
2272.7729   7.15476e+13
2272.9055   7.18759e+13
2273.0381   6.70637e+13
2273.1709   7.14559e+13
2273.3035   7.14392e+13
2273.4360   7.10680e+13
2273.5686  -1.64043e+11
2273.7012  -1.67909e+11
2273.8337  -1.65418e+11
2273.9663   6.38321e+12
2274.0986  -1.74329e+11
2274.2312   7.17377e+13
2274.3635   4.36180e+11
2274.4958   6.97605e+13
2274.6284   1.63130e+13
2274.7605   7.11766e+13
2274.8931   7.17099e+13
2275.0254   7.18198e+13
2275.1577   7.19462e+13
2275.2898   7.15180e+13
2275.4221   7.22829e+13
2275.5542   7.17208e+13
2275.6865  -1.86414e+11
2275.8186   7.18992e+13
2275.9509   7.16547e+13
2276.0830   7.20283e+13
2276.2151   2.59512e+13
2276.3472   7.21453e+13
2276.4792   7.15049e+13
2276.6113   7.20883e+13
2276.7434  -1.97288e+11
2276.8752   7.32441e+13
2277.0073   7.30238e+13
2277.1394   7.22123e+13
2277.2712   7.20200e+13
2277.4031   7.36671e+13
2277.5349   6.21299e+13
2277.6670   7.14546e+13
2277.7986   7.21015e+13
2277.9307   7.23853e+13
2278.0625   7.23609e+13
2278.1941   7.30347e+13
2278.3259   3.35844e+13
2278.4575   7.24609e+13
2278.5894   7.17557e+13
2278.7209   7.30163e+13
2278.8528  -2.11592e+11
2278.9844   7.14931e+12
2279.1160   5.40652e+11
2279.2476   7.24537e+13
2279.3792   3.64745e+13
2279.5107   7.24206e+13
2279.6421   7.29452e+13
2279.7737  -1.06561e+10
2279.9053   7.17872e+13
2280.0366   7.11535e+13
2280.1682   7.16813e+13
2280.2996   6.51052e+13
2280.4309   7.57869e+13
2280.5623   7.23423e+13
2280.6936   7.20209e+13
2280.8250   7.19158e+13
2280.9563   7.08334e+13
2281.0876   6.46464e+13
2281.2190   6.48621e+13
2281.3501   5.98233e+13
2281.4812   6.42277e+13
2281.6125   6.91272e+13
2281.7437   7.05080e+13
2281.8748   7.12047e+13
2282.0061   7.14843e+13
2282.1372   6.80391e+13
2282.2683   7.47284e+13
2282.3992   7.22571e+13
2282.5303   7.10795e+13
2282.6614   7.11572e+13
2282.7922   7.17476e+13
2282.9233   7.25822e+13
2283.0542   7.26961e+13
2283.1851   7.25895e+13
2283.3159   7.28916e+13
2283.4470   7.27765e+13
2283.5779   7.21600e+13
2283.7085   7.15724e+13
2283.8394   7.13965e+13
2283.9702   7.37620e+13
2284.1011   7.31173e+13
2284.2317   2.66673e+13
2284.3625   7.27650e+13
2284.4932   7.27949e+13
2284.6238   7.25928e+13
2284.7544   7.28751e+13
2284.8853   7.27052e+13
2285.0159   7.25511e+13
2285.1465   9.63041e+11
2285.2771   1.65825e+14
2285.4075   1.26302e+14
2285.5381   1.37494e+14
2285.6685   7.26374e+13
2285.7991   7.28848e+13
2285.9294   7.27605e+13
2286.0598   7.28648e+13
2286.1902   7.24962e+13
2286.3208   7.26879e+13
2286.4512   7.29936e+13
2286.5813   7.30113e+13
2286.7119   6.44065e+13
2286.8420   7.27026e+13
2286.9724   7.27985e+13
2287.1025   7.64262e+13
2287.2329   7.12124e+13
2287.3630   7.25589e+13
2287.4932   7.26399e+13
2287.6233  -1.42499e+10
2287.7537   7.28470e+13
2287.8838   7.23988e+13
2288.0139   7.29117e+13
2288.1438  -2.73134e+11
2288.2739  -3.07817e+11
2288.4041  -7.24774e+11
2288.5339  -2.89754e+11
2288.6641   7.47413e+13
2288.7939   7.17836e+13
2288.9238   7.16024e+13
2289.0537   7.19966e+13
2289.1836   9.56700e+12
2289.3137   7.18591e+13
2289.4434   7.51248e+13
2289.5732   7.20159e+13
2289.7031   7.20842e+13
2289.8330   7.25882e+13
2289.9626   7.36908e+13
2290.0923   7.24609e+13
2290.2222  -5.67159e+11
2290.3518   7.21031e+13
2290.4814   7.07485e+13
2290.6111   7.23765e+13
2290.7407   7.06811e+13
2290.8704   7.22506e+13
2291.0000   7.30103e+13
2291.1294   7.05193e+13
2291.2590   7.05816e+13
2291.3887   7.17561e+13
2291.5181   7.20637e+13
2291.6477   7.23228e+13
2291.7771   4.28437e+13
2291.9065   5.81710e+13
2292.0359   7.24308e+13
2292.1653   7.24219e+13
2292.2947   7.41165e+13
2292.4241   5.24498e+13
2292.5532   7.22711e+13
2292.6826   7.19104e+13
2292.8120   1.43071e+14
2292.9412   7.28756e+13
2293.0703   7.21176e+13
2293.1995   7.17353e+13
2293.3286   7.08363e+13
2293.4580   6.88530e+13
2293.5869   6.87263e+13
2293.7163   2.50874e+13
2293.8452   6.95123e+13
2293.9744   6.89497e+13
2294.1035   6.27685e+13
2294.2324   7.04810e+13
2294.3613   7.08268e+13
2294.4905   7.09029e+13
2294.6194   7.06385e+13
2294.7483  -3.80018e+11
2294.8772   7.09585e+13
2295.0061   7.11824e+13
2295.1350   7.11972e+13
2295.2639   7.08268e+13
2295.3926   6.94980e+13
2295.5215   7.15316e+13
2295.6504   5.30248e+13
2295.7791   7.05609e+13
2295.9077   7.10509e+13
2296.0366   7.05445e+13
2296.1653   7.00275e+13
2296.2937   7.10301e+13
2296.4226   7.16257e+13
2296.5510   7.12711e+13
2296.6797   6.09654e+13
2296.8083   7.12976e+13
2296.9370   1.04512e+14
2297.0654   5.75046e+12
2297.1938   7.08421e+13
2297.3225   5.80971e+11
2297.4509   7.51509e+13
2297.5793   7.16156e+13
2297.7078   5.88044e+13
2297.8362   7.14389e+13
2297.9646   7.18627e+13
2298.0930   7.18923e+13
2298.2212   7.15706e+13
2298.3496   7.07198e+13
2298.4778   7.09293e+13
2298.6062   7.16263e+13
2298.7344   7.17275e+13
2298.8625   7.19633e+13
2298.9907   5.77713e+13
2299.1189   6.80510e+13
2299.2471   7.10614e+13
2299.3752   6.57017e+13
2299.5034   7.03234e+13
2299.6316   7.08425e+13
2299.7595   7.05628e+13
2299.8877   7.11387e+13
2300.0156   1.13988e+14
2300.1436  -5.26812e+11
2300.2715   7.13529e+13
2300.3994   7.02585e+13
2300.5276   7.09237e+13
2300.6555   7.09897e+13
2300.7832   7.15472e+13
2300.9111   7.15932e+13
2301.0391   7.38155e+13
2301.1667  -2.68436e+11
2301.2947   6.08225e+13
2301.4224   7.11466e+13
2301.5500   7.17018e+13
2301.6780   9.33565e+13
2301.8057   7.16795e+13
2301.9333  -4.44899e+11
2302.0608   7.05291e+13
2302.1887   7.11062e+13
2302.3162   7.13386e+13
2302.4438   7.16185e+13
2302.5713   7.14273e+13
2302.6990   6.91275e+13
2302.8264   7.11045e+13
2302.9541   7.06223e+13
2303.0815   7.10540e+13
2303.2090   7.10132e+13
2303.3364   7.12826e+13
2303.4639   7.15118e+13
2303.5913   1.00974e+14
2303.7185   7.07722e+13
2303.8459   7.14554e+13
2303.9731   7.28300e+13
2304.1006   7.13988e+13
2304.2278   7.13225e+13
2304.3550   6.58860e+13
2304.4824   6.56576e+13
2304.6096   7.12100e+13
2304.7368   7.02646e+13
2304.8640   7.07227e+13
2304.9912   7.13022e+13
2305.1182   7.12768e+13
2305.2454   7.14682e+13
2305.3723   7.15609e+13
2305.4995   7.13612e+13
2305.6265  -4.84518e+11
2305.7534   7.07047e+13
2305.8806   6.98622e+13
2306.0076   9.25397e+13
2306.1345   7.14984e+13
2306.2615   7.57125e+13
2306.3882   7.13278e+13
2306.5151  -4.96699e+11
2306.6421   5.57742e+13
2306.7688   7.05914e+13
2306.8958   7.18681e+13
2307.0225   7.13172e+13
2307.1494   7.16289e+13
2307.2759   7.15097e+13
2307.4026   7.16434e+13
2307.5293  -4.74254e+11
2307.6560   7.07932e+13
2307.7827   7.24027e+13
2307.9094   7.06633e+13
2308.0359   6.73323e+13
2308.1626   7.08547e+13
2308.2893   7.11848e+13
2308.4158  -5.05499e+11
2308.5422   7.15883e+13
2308.6687   6.96137e+13
2308.7954   6.21589e+13
2308.9216   6.77708e+13
2309.0481   7.07667e+13
2309.1746   7.13691e+13
2309.3010   7.15630e+13
2309.4272  -5.09182e+11
2309.5537   6.87919e+13
2309.6799   7.13314e+13
2309.8064   7.16660e+13
2309.9326   6.09827e+13
2310.0588   7.11292e+13
2310.1851   7.15881e+13
2310.3113   7.10175e+13
2310.4375   7.18618e+13
2310.5637   7.21082e+13
2310.6897   7.18356e+13
2310.8159   7.15882e+13
2310.9419   7.15359e+13
2311.0681   3.78383e+13
2311.1941   7.10785e+13
2311.3203   6.24856e+13
2311.4463   7.08367e+13
2311.5723   7.12837e+13
2311.6982   7.04257e+13
2311.8242   8.28586e+13
2311.9500   7.16495e+13
2312.0759   2.55063e+13
2312.2019   6.42476e+13
2312.3276   7.10767e+13
2312.4536   7.12655e+13
2312.5793   7.17516e+13
2312.7051   7.53710e+13
2312.8308   1.22303e+14
2312.9565   7.12141e+13
2313.0823   7.18406e+13
2313.2080   7.15225e+13
2313.3337   1.01757e+14
2313.4595   7.07055e+13
2313.5850   7.02025e+13
2313.7107   6.97432e+13
2313.8362  -5.11828e+11
2313.9619   7.19050e+13
2314.0874   7.09029e+13
2314.2129   7.17948e+13
2314.3384   6.81353e+13
2314.4639   5.55784e+13
2314.5894   7.01352e+13
2314.7146   5.09143e+13
2314.8401   6.92128e+13
2314.9656   6.69739e+13
2315.0908  -5.71910e+11
2315.2163   7.09976e+13
2315.3416   7.10595e+13
2315.4668   7.33955e+13
2315.5920   7.13681e+13
2315.7173   7.14465e+13
2315.8425   7.10617e+13
2315.9678   7.02962e+13
2316.0930  -4.12389e+12
2316.2180   7.05633e+13
2316.3433   6.98871e+13
2316.4685   7.10637e+13
2316.5935   7.19204e+13
2316.7185   7.15262e+13
2316.8435   3.77825e+13
2316.9685   6.91146e+13
2317.0935   6.92682e+13
2317.2185   6.95738e+13
2317.3435   7.13202e+13
2317.4685   7.07422e+13
2317.5935   7.60392e+13
2317.7183   6.94772e+13
2317.8433   7.05613e+13
2317.9680   6.81088e+13
2318.0930  -3.21886e+10
2318.2178   7.07663e+13
2318.3425   6.13659e+13
2318.4673   7.11355e+13
2318.5920   7.04335e+13
2318.7168   7.18648e+13
2318.8413   7.16095e+13
2318.9661   6.93156e+13
2319.0908   7.02160e+13
2319.2153   7.20713e+13
2319.3398   7.30511e+13
2319.4646   6.93795e+13
2319.5891   6.06119e+13
2319.7136   7.14590e+13
2319.8381   7.05341e+13
2319.9626   7.11951e+13
2320.0872   7.20887e+13
2320.2117   7.09287e+13
2320.3359  -6.87551e+11
2320.4604   7.05369e+13
2320.5847  -1.03655e+11
2320.7090   1.16599e+14
2320.8335   7.16960e+13
2320.9578   1.75694e+13
2321.0820   6.94086e+13
2321.2063   7.02439e+13
2321.3306   7.23114e+13
2321.4548   1.06237e+13
2321.5791  -6.54795e+11
2321.7031   7.24204e+13
2321.8274   6.99745e+13
2321.9514   5.04328e+13
2322.0757   7.00382e+13
2322.1997   6.98053e+13
2322.3237  -3.06756e+10
2322.4478   7.06766e+13
2322.5718   6.59541e+13
2322.6958   6.61040e+13
2322.8198   6.53571e+13
2322.9438   6.85097e+13
2323.0676   4.92128e+13
2323.1917   1.55871e+14
2323.3154   6.72649e+13
2323.4395   6.91265e+13
2323.5632   6.84217e+13
2323.6870   6.82020e+13
2323.8108   6.90891e+13
2323.9346  -3.86266e+11
2324.0583   6.87414e+13
2324.1821   1.74336e+14
2324.3059   6.82124e+13
2324.4294   4.99199e+13
2324.5532   6.90750e+13
2324.6768   6.89681e+13
2324.8003   6.75162e+13
2324.9241   7.06659e+13
2325.0476   6.88452e+13
2325.1711   6.86611e+13
2325.2947   6.90901e+13
2325.4182   6.91576e+13
2325.5417  -6.41218e+11
2325.6650   5.55837e+13
2325.7886   6.88995e+13
2325.9121   7.08261e+13
2326.0354   9.29121e+13
2326.1587   6.81974e+13
2326.2820  -6.27488e+11
2326.4055   7.03422e+13
2326.5288   6.71501e+13
2326.6521  -2.63709e+09
2326.7754   1.86788e+14
2326.8987  -1.05202e+12
2327.0217   7.01050e+13
2327.1450   6.96296e+13
2327.2683   6.89864e+13
2327.3914   6.90522e+13
2327.5144   6.86819e+13
2327.6375   6.92054e+13
2327.7605   6.72577e+13
2327.8838   6.49880e+13
2328.0066   6.56832e+13
2328.1299   6.39969e+13
2328.2527   6.98915e+13
2328.3757   6.75081e+13
2328.4988   6.58107e+13
2328.6216   6.96619e+13
2328.7444   6.67210e+13
2328.8674   6.74010e+13
2328.9902   7.10360e+13
2329.1130   6.84359e+13
2329.2358   7.59155e+13
2329.3586   5.93288e+13
2329.4814   6.74857e+13
2329.6042   6.95475e+13
2329.7271   6.91232e+13
2329.8496   7.05077e+13
2329.9724   5.12101e+13
2330.0950   6.98804e+13
2330.2175   6.86420e+13
2330.3403   6.85226e+13
2330.4629   7.14599e+13
2330.5854  -7.31413e+11
2330.7080   6.83450e+13
2330.8306   7.10094e+13
2330.9529   6.70834e+13
2331.0754   6.99113e+13
2331.1980   6.80183e+13
2331.3203   6.90934e+13
2331.4429   6.92463e+13
2331.5652   5.75238e+13
2331.6875   5.12095e+13
2331.8098   6.91991e+13
2331.9321   1.07905e+14
2332.0544   4.66189e+13
2332.1768   6.55318e+13
2332.2991   6.89072e+13
2332.4214   7.00212e+13
2332.5435   6.77812e+13
2332.6658   4.84580e+13
2332.7878  -1.27747e+13
2332.9099   6.64185e+13
2333.0320   1.21189e+14
2333.1543   7.18695e+13
2333.2764   6.96643e+13
2333.3984   1.52220e+14
2333.5205   1.73780e+14
2333.6423   6.69166e+13
2333.7644   6.72788e+13
2333.8865   6.78455e+13
2334.0083   5.34680e+13
2334.1304  -7.76021e+11
2334.2522  -1.27553e+13
2334.3740  -7.64455e+11
2334.4958  -1.29801e+13
2334.6177  -8.07642e+11
2334.7395   6.74910e+13
2334.8613   6.63345e+13
2334.9832   6.78326e+13
2335.1047   6.84511e+13
2335.2266   6.63013e+13
2335.3484   6.84502e+13
2335.4700   6.29955e+13
2335.5916   6.06844e+13
2335.7131   6.91883e+13
2335.8347   6.59402e+13
2335.9563   7.91668e+12
2336.0779   6.85838e+13
2336.1995   8.53508e+13
2336.3210   1.34330e+14
2336.4426   7.10584e+13
2336.5640   6.53586e+13
2336.6855   6.08840e+13
2336.8069   6.68257e+13
2336.9282   6.53072e+13
2337.0498   6.97190e+13
2337.1711   6.43508e+13
2337.2925  -9.08852e+11
2337.4138   5.94889e+13
2337.5349   7.25336e+13
2337.6562   6.91238e+13
2337.7776   5.41848e+13
2337.8987   6.78596e+13
2338.0200   6.65799e+13
2338.1411   6.63523e+13
2338.2622   6.79396e+13
2338.3835   7.03401e+13
2338.5046  -4.29607e+10
2338.6257   6.22666e+13
2338.7468   6.57699e+13
2338.8679   6.75891e+13
2338.9890   6.59713e+13
2339.1099  -1.27348e+13
2339.2307   6.82072e+13
2339.3518   5.13292e+13
2339.4727   6.81719e+13
2339.5938  -8.59704e+11
2339.7146  -8.57313e+11
2339.8354   6.87324e+13
2339.9563   6.98658e+13
2340.0771   7.06644e+13
2340.1980   6.34617e+13
2340.3186   6.79022e+13
2340.4395   8.51510e+13
2340.5603   6.38372e+13
2340.6809   6.53764e+13
2340.8015   6.60534e+13
2340.9224   7.15790e+13
2341.0430   6.86610e+13
2341.1636   5.09066e+13
2341.2842   6.71429e+13
2341.4048   6.84341e+13
2341.5254   6.09850e+13
2341.6458   7.44293e+13
2341.7664   6.62200e+13
2341.8867   7.00897e+13
2342.0073   6.22035e+13
2342.1277   6.88196e+13
2342.2483   7.21301e+13
2342.3687   7.22068e+13
2342.4890   7.12352e+13
2342.6094   6.52174e+13
2342.7297   7.11600e+13
2342.8501  -1.05448e+12
2342.9702   6.53810e+13
2343.0906   6.03945e+13
2343.2107   1.41994e+14
2343.3311   6.95200e+13
2343.4512   6.60041e+13
2343.5713   6.87532e+13
2343.6917   6.72842e+13
2343.8118   6.48817e+13
2343.9319   7.01293e+13
2344.0520   6.52273e+13
2344.1721   6.86397e+13
2344.2920   5.07387e+13
2344.4121   6.74707e+13
2344.5320   6.63878e+13
2344.6521   5.33506e+13
2344.7720   6.78405e+13
2344.8918   4.82038e+13
2345.0117   6.76728e+13
2345.1316   4.99568e+13
2345.2517   6.77053e+13
2345.3713   6.50943e+13
2345.4912   6.59755e+13
2345.6111  -1.36958e+13
2345.7307   6.81810e+13
2345.8506   5.60777e+13
2345.9702   6.79857e+13
2346.0901  -1.48201e+13
2346.2097   6.58125e+13
2346.3293   6.68817e+13
2346.4490   6.51081e+13
2346.5686   6.82033e+13
2346.6882   6.87700e+13
2346.8079   7.05238e+13
2346.9275   4.38947e+13
2347.0469  -1.48813e+13
2347.1665   6.43656e+13
2347.2859   6.68997e+13
2347.4055   6.78444e+13
2347.5249   6.92922e+13
2347.6443   6.65639e+13
2347.7637   6.62346e+13
2347.8831   6.82131e+13
2348.0022  -1.08425e+12
2348.1216   6.94405e+13
2348.2410   6.63303e+13
2348.3604   6.91623e+13
2348.4795   6.29326e+13
2348.5989   6.59811e+13
2348.7180   6.88141e+13
2348.8372   6.93396e+13
2348.9563   6.88190e+13
2349.0754   1.26373e+14
2349.1946   6.61864e+13
2349.3137  -5.74952e+10
2349.4329   3.45769e+12
2349.5520   3.10568e+12
2349.6709  -5.44864e+10
2349.7900   6.53734e+13
2349.9089   9.90443e+13
2350.0278   1.91562e+14
2350.1470  -5.64553e+10
2350.2659   6.70512e+13
2350.3848   6.84314e+13
2350.5037   6.67262e+13
2350.6226   4.66160e+13
2350.7412   6.77087e+13
2350.8601   6.75252e+13
2350.9790   5.23198e+13
2351.0977   6.96424e+13
2351.2163   6.96959e+13
2351.3352   6.93206e+13
2351.4539   6.40904e+13
2351.5725   5.51992e+13
2351.6912   6.51121e+13
2351.8098   6.65316e+13
2351.9285  -6.06315e+10
2352.0471   6.95283e+13
2352.1655   6.54998e+13
2352.2842   6.04505e+13
2352.4026   6.58843e+13
2352.5212   6.59841e+13
2352.6396   6.37022e+13
2352.7581   6.27585e+13
2352.8767   6.25291e+13
2352.9951   6.41191e+13
2353.1133   6.13487e+13
2353.2317   6.17019e+13
2353.3501   6.79774e+13
2353.4685   4.56530e+13
2353.5867   6.20953e+13
2353.7051  -1.23201e+12
2353.8232   4.33925e+13
2353.9414   6.50730e+13
2354.0598   6.49889e+13
2354.1780   6.57561e+13
2354.2961   6.26797e+13
2354.4143  -2.60858e+10
2354.5325  -2.59528e+12
2354.6504   6.54786e+13
2354.7686   5.64515e+13
2354.8867   6.77832e+13
2355.0046   6.43937e+13
2355.1226   6.66077e+13
2355.2405   6.42278e+13
2355.3586   6.69852e+13
2355.4766   6.64381e+13
2355.5945   6.70155e+13
2355.7124  -8.94649e+11
2355.8301   7.61586e+13
2355.9480   1.41518e+13
2356.0659   6.52853e+13
2356.1836   6.50403e+13
2356.3015   6.58426e+13
2356.4192   6.53955e+13
2356.5371   6.48486e+13
2356.6548   2.73453e+13
2356.7725   6.75360e+13
2356.8901   6.52456e+13
2357.0078  -6.35816e+11
2357.1255   6.45295e+13
2357.2429   6.55599e+13
2357.3606   6.67198e+13
2357.4783   6.45616e+13
2357.5957  -1.10589e+12
2357.7134   6.75067e+13
2357.8308  -1.36673e+12
2357.9482  -1.69273e+13
2358.0657   2.43798e+13
2358.1831   6.26987e+13
2358.3005   6.82497e+13
2358.4180  -1.66189e+13
2358.5354  -1.32105e+12
2358.6526   6.38507e+13
2358.7700   1.12140e+13
2358.8872   6.44832e+13
2359.0044   6.28413e+13
2359.1218   6.46419e+13
2359.2390   1.91299e+13
2359.3562   4.34179e+13
2359.4734   6.77295e+13
2359.5906  -6.54858e+10
2359.7078   6.33967e+13
2359.8247   6.76818e+13
2359.9419   6.75969e+13
2360.0591   6.50897e+13
2360.1760  -6.74051e+10
2360.2932   1.37944e+14
2360.4102   6.68031e+13
2360.5271   9.78514e+13
2360.6440  -1.30871e+12
2360.7610   6.55768e+13
2360.8779   6.55847e+13
2360.9949   6.51055e+13
2361.1116   6.40806e+13
2361.2285   1.73287e+13
2361.3452   6.41542e+13
2361.4622   6.59757e+13
2361.5789   6.45875e+13
2361.6958   6.25270e+13
2361.8125   4.04550e+13
2361.9292   6.50996e+13
2362.0459   6.69775e+13
2362.1626   7.65352e+13
2362.2791   6.63007e+13
2362.3958   6.42586e+13
2362.5125   5.36977e+13
2362.6289   6.25463e+13
2362.7456   4.80988e+13
2362.8621   6.74799e+13
2362.9785   6.22118e+13
2363.0952   6.43572e+13
2363.2114   5.56324e+13
2363.3279   7.07088e+13
2363.4443   6.87955e+13
2363.5608   6.65794e+13
2363.6772  -2.38232e+12
2363.7935   1.64624e+14
2363.9099   6.42641e+13
2364.0261   6.58987e+13
2364.1426   6.72126e+13
2364.2588   6.78589e+13
2364.3750   6.39244e+13
2364.4912   4.94794e+13
2364.6074  -7.71314e+10
2364.7236   6.55029e+13
2364.8398  -7.53612e+10
2364.9558   6.21325e+13
2365.0720   6.07182e+13
2365.1880   8.28882e+13
2365.3042   1.57975e+14
2365.4202   6.65365e+13
2365.5361   6.37425e+13
2365.6521   6.53129e+13
2365.7683   6.44341e+13
2365.8843   6.86053e+13
2366.0000   6.43334e+13
2366.1160   6.47204e+13
2366.2319   6.37754e+13
2366.3479   6.49208e+13
2366.4636   6.87413e+13
2366.5793   6.62229e+13
2366.6953  -7.65446e+10
2366.8110   9.49708e+13
2366.9268   6.51687e+13
2367.0425   6.70109e+13
2367.1582   6.38104e+13
2367.2739   6.03320e+13
2367.3896   6.16145e+13
2367.5051   6.80363e+13
2367.6208  -1.53422e+12
2367.7363   6.54599e+13
2367.8521   6.32480e+13
2367.9675   9.50768e+13
2368.0830   6.27407e+13
2368.1985   6.32380e+13
2368.3142  -2.33138e+12
2368.4297  -7.85159e+10
2368.5449   6.59667e+13
2368.6604   6.63490e+13
2368.7759   6.74639e+13
2368.8911   6.35564e+13
2369.0066   1.11155e+14
2369.1218   5.96254e+13
2369.2373  -1.28778e+12
2369.3525   5.25547e+13
2369.4678   1.62114e+14
2369.5830   6.34517e+13
2369.6982  -5.67187e+11
2369.8135   6.75664e+13
2369.9287   6.33036e+13
2370.0437   1.24325e+14
2370.1589   6.20040e+13
2370.2739   6.26767e+13
2370.3889   6.18426e+13
2370.5042   6.35115e+13
2370.6191   6.26629e+13
2370.7341   6.57222e+13
2370.8491   6.48517e+13
2370.9641   6.28918e+13
2371.0791   6.45983e+13
2371.1941   6.54731e+13
2371.3088   6.76783e+13
2371.4238  -9.12655e+10
2371.5388   8.58343e+13
2371.6536   6.21431e+13
2371.7683   5.92180e+13
2371.8831  -1.24771e+12
2371.9978   6.19165e+13
2372.1125   6.48376e+13
2372.2273   6.37438e+13
2372.3420   3.41835e+13
2372.4568   6.31685e+13
2372.5713   6.47210e+13
2372.6860   5.77939e+13
2372.8008   6.24701e+13
2372.9153   5.92080e+13
2373.0298   4.00136e+13
2373.1443   6.10061e+13
2373.2588  -8.49649e+10
2373.3733   6.05586e+13
2373.4878   6.72277e+13
2373.6023   6.30127e+13
2373.7168   6.55832e+13
2373.8313   6.30121e+13
2373.9456   6.23979e+13
2374.0601   6.27117e+13
2374.1743   6.21688e+13
2374.2886   6.02373e+13
2374.4028   6.29777e+13
2374.5171   6.55470e+13
2374.6316   6.62815e+13
2374.7456  -1.76100e+12
2374.8599   6.54198e+13
2374.9741   6.15410e+13
2375.0884   4.76418e+13
2375.2024   6.24197e+13
2375.3167   8.53637e+13
2375.4307   1.61544e+14
2375.5447  -9.06425e+10
2375.6587   6.23093e+13
2375.7727   6.22344e+13
2375.8867   6.47629e+13
2376.0007   6.27822e+13
2376.1147   6.23487e+13
2376.2288  -2.15528e+12
2376.3428  -8.49762e+10
2376.4565   6.18015e+13
2376.5703   6.32287e+13
2376.6843   6.08860e+13
2376.7981  -8.31661e+10
2376.9119  -7.98903e+10
2377.0256   5.80832e+13
2377.1394   6.14139e+13
2377.2532   6.14925e+13
2377.3669   6.52912e+13
2377.4807   5.27627e+13
2377.5942   6.01618e+13
2377.7080   5.85170e+13
2377.8215   5.84654e+13
2377.9353   6.55346e+13
2378.0488   6.27082e+13
2378.1624   6.58273e+13
2378.2759   6.36381e+13
2378.3894   5.44693e+13
2378.5029   5.78740e+13
2378.6165  -7.97781e+10
2378.7300   4.15434e+10
2378.8433   5.84501e+13
2378.9568   6.23085e+13
2379.0701   3.17005e+13
2379.1836   5.99806e+13
2379.2969   5.88707e+13
2379.4102   5.59467e+13
2379.5234   5.52913e+13
2379.6367   5.88179e+13
2379.7500   5.96073e+13
2379.8633   6.03643e+13
2379.9763   5.80721e+13
2380.0896   5.55089e+13
2380.2026   5.61208e+13
2380.3159   6.12649e+13
2380.4290   5.76166e+13
2380.5420   3.26802e+13
2380.6553   5.79848e+13
2380.7683   5.60466e+13
2380.8813   5.37173e+13
2380.9944   3.19639e+13
2381.1072   5.46167e+13
2381.2202   5.43484e+13
2381.3330   5.86314e+13
2381.4460  -7.88391e+10
2381.5591  -7.99664e+10
2381.6719   3.95727e+13
2381.7847   5.60127e+13
2381.8975   5.73603e+13
2382.0103   5.68201e+13
2382.1230   5.57040e+13
2382.2358   5.40355e+13
2382.3486  -7.77213e+10
2382.4612   5.70939e+13
2382.5740   5.57677e+13
2382.6868   5.27628e+13
2382.7993   5.43018e+13
2382.9121   3.69953e+13
2383.0247   5.41198e+13
2383.1372   5.29984e+13
2383.2498   5.56039e+13
2383.3623   5.16176e+13
2383.4746   5.16970e+13
2383.5872   5.24820e+13
2383.6997   5.32074e+13
2383.8123   5.06980e+13
2383.9246   2.45433e+14
2384.0371   6.34956e+12
2384.1494  -4.11314e+09
2384.2617  -4.48949e+09
2384.3740   6.87704e+13
2384.4863   3.16663e+13
2384.5986   1.59082e+13
2384.7109   1.25481e+13
2384.8232   1.51051e+13
2384.9353   1.82159e+13
2385.0476   4.79924e+13
2385.1599  -8.64259e+13
2385.2720  -3.15333e+13
2385.3840   2.56863e+11
2385.4961   1.80771e+11
2385.6084   1.01817e+13
